EEG 1, EEG 2, EEG 3, EEG 4, EEG 5, EEG 6, EEG 7, EEG 8, TRIG
23546.3009640544,23546.3009640544,23546.3009640544,19768.200153407997,17524.777965825346,9906.034238004158,23546.3009640544,23546.3009640544,0.0
143256.73102667858,143256.73102667858,143256.73102667858,124048.7002810904,112643.04317607265,70921.08385491099,143256.73102667858,143256.73102667858,0.0
394547.96324167587,394547.96324167587,394547.96324167587,354227.251738448,330284.96344625595,233785.30480274404,394547.96324167587,394547.96324167587,0.0
665989.4854809126,665989.4854809126,665989.4854809126,622435.5770865231,596573.42852432,476856.77900496044,665989.4854809126,665989.4854809126,0.0
798051.6455873671,798051.6455873671,798051.6455873671,776861.7289666806,764279.2354117385,687103.7886981796,798051.6455873671,798051.6455873671,0.0
761102.5083407257,761102.5083407257,761102.5083407257,767031.1493445653,770551.5542878988,765748.8204831237,761102.5083407257,761102.5083407257,0.0
653622.1402064922,653622.1402064922,653622.1402064922,670867.8072263965,681108.2200610852,720573.7333462031,653622.1402064922,653622.1402064922,0.0
577964.7680572824,579336.0573499885,579336.0573499885,591255.5648041862,598333.3239292,636008.4795284306,579336.0573499885,579336.0573499885,0.0
555717.6703455853,566042.8417362107,567816.3897019387,569664.7677442299,570762.3277403552,583916.2871074087,567816.3897019387,567816.3897019387,0.0
533006.5197050347,567486.9685598259,581703.1166558121,576321.3000593428,578151.8477812684,572684.77782811,578570.5046352088,580140.3363111714,0.0
453722.3821861736,521913.6158612886,575207.2256642997,553979.6173609815,573844.9383830571,559251.2059054477,553098.8046933758,562411.6295138658,0.0
325151.05077266006,415466.63088926417,541918.9824091136,473113.6486677894,529060.4683798284,499509.194853345,468360.9037639776,493021.31659099244,0.0
202929.48317495745,289331.6416660247,507612.10551841935,354809.983657576,445323.0130937974,392324.68642110436,350680.62212210515,389749.6838896057,0.0
124442.73332560077,188467.41193997866,488429.5684293959,241937.40199696267,342954.1688165024,275615.7346018638,241223.0889936458,283417.1383448797,0.0
81894.43993955974,123718.49546753896,474551.6471408852,159597.52765567752,246166.79503637308,186238.104782219,160625.12587888323,194751.15327633388,0.0
53935.77601298506,85453.07606634086,454136.71520106366,110510.6041000036,174914.39486823173,134857.74303313682,111049.33578554878,134606.3426527825,0.0
34504.0291562499,66168.33068667134,431815.905817337,88615.49147910115,138772.68096807634,112270.75336753814,89045.87874014294,106906.16395350381,0.0
24267.969082581185,58013.253613300614,414764.59931067296,81376.74697988277,128902.82891349687,103196.55024410953,82708.30039458997,100507.98768876784,0.0
15969.558924709805,47951.46698897419,396877.3337365707,71604.31102434869,121986.33467416234,93358.61677390133,73146.49190125128,92522.9013446017,0.0
2503.520897686909,29912.285849756074,369009.32477662025,51601.70258843341,102220.07250767919,75490.657227562,52503.96205449471,71438.62816340078,0.0
-11685.421452260169,12051.695776440392,334288.76879848813,30180.858322634922,75841.09125958972,53750.7368543913,31281.259202110345,47685.344763297166,0.0
-19546.27835303453,2364.1079560217236,301271.8152205716,17464.498564507216,56904.02671872479,37232.23022760641,19667.673503995986,33710.39330466729,0.0
-24440.737848946068,-4178.677330054082,269839.97622245783,9811.411417415653,45886.59149437191,27516.723455746498,12172.267370802625,25203.92221753943,0.0
-33574.580908877455,-15490.354861775935,235929.9063118982,-1742.2394945534083,33053.629403553445,17866.024662542437,-443.9232618199178,12029.352145541796,0.0
-44827.417085376685,-28535.12602472157,203432.59003743215,-16019.921952087276,16644.564272188196,4678.0988685884395,-15087.216966843644,-3673.151303076803,0.0
-51258.33924431891,-36180.48153385447,178653.42398377045,-25792.585242605386,3733.3228375372173,-7874.147645212644,-23896.7818357074,-13683.333569511173,0.0
-54095.21832432488,-40658.84988306232,158057.88257387,-31715.086113262616,-4541.984424197009,-16438.116668967188,-29313.353092116202,-19879.90335292573,0.0
-60095.34406322812,-48867.9738814613,133755.1310592234,-40379.22422042176,-14848.560049184478,-24113.893333284872,-38864.79388681656,-30133.717932938325,0.0
-68974.30639684606,-59382.20296503734,107288.34546323903,-51628.968993573646,-28511.065075853836,-33993.412999109685,-50844.451623136425,-43174.96075290771,0.0
-74395.22096532214,-65515.57649904693,86279.64315956466,-59251.35216269157,-38976.09936160099,-43561.692468422894,-57876.27459074475,-51238.43837871649,0.0
-75962.46575688006,-67988.80386592193,70360.74778433962,-62936.73009713426,-44313.3095833106,-49931.485355976445,-60901.18701478309,-54802.69935248103,0.0
-79682.3220828929,-73415.3210045461,52251.181413454724,-68755.15869326032,-50932.515535207196,-55371.114423854466,-67271.97276449851,-61595.79972345705,0.0
-86653.26664676961,-81976.60538468939,31245.839413066566,-77757.0731989723,-61752.675549166874,-62889.83786431672,-77087.63158940832,-72243.78802600579,0.0
-91328.28836822059,-87389.06452821233,13950.375895370573,-84267.97196833661,-71045.23685580051,-70643.77910557282,-83359.16168168702,-79464.17323503782,0.0
-92073.93111637984,-88710.1339354816,1622.2576198796448,-86646.95586806687,-75189.78834527558,-75616.62621032477,-85123.01227159568,-81738.9199380077,0.0
-94041.85864435493,-91863.06862787955,-12024.9051768522,-90194.43067128793,-79150.56516755118,-79329.36104901381,-88951.91219706443,-85845.21585892326,0.0
-99421.03524408642,-98561.3728988792,-29015.69379787635,-97179.31024793681,-87136.35074004784,-84894.66835859575,-96656.32773919209,-94152.95423510789,0.0
-103555.65078388999,-103435.0665823041,-43623.770090001955,-102841.32284763559,-95137.67661027759,-91216.67779668127,-102284.61164601424,-100594.17645671134,0.0
-103816.78617801746,-104200.92009464596,-53274.16255078875,-104453.2836047114,-98712.8151594015,-95199.63508031017,-103416.07276743901,-102206.90097842643,0.0
-104390.27788825762,-105685.44266006711,-63241.78128199775,-106275.06710707006,-101047.3689382753,-97597.09089137794,-105415.60059620117,-104402.14639178479,0.0
-108354.88539472749,-110689.4788375731,-76783.10853976225,-111498.00402438774,-106713.11260892639,-101548.95720736524,-111259.95342422946,-110679.20828190797,0.0
-112101.52499024353,-115026.73795456336,-89346.30817258506,-116479.69528832767,-113343.26889147065,-106734.82834348138,-116258.01452523012,-116369.79137168487,0.0
-112221.98670744538,-115550.96082745127,-97251.29400424405,-117711.98391423328,-116439.63377551861,-110070.8516446851,-117049.34924365071,-117620.91383847385,0.0
-111738.43242940842,-115851.15209437435,-104376.88939147859,-118230.71400312304,-117731.6487183759,-111474.98489190421,-117702.49465681645,-118420.02045917531,0.0
-114330.04429664399,-119355.11511969085,-114800.8468833624,-121808.87739470953,-121632.88500619559,-113959.90273780315,-121915.14889183584,-122925.15968782577,0.0
-117632.60651510902,-123103.61615204618,-125474.20325158445,-126095.35386366726,-127005.28062419595,-118072.73075509157,-126289.06335645507,-127874.32427123087,0.0
-117850.18445121407,-123527.02405294322,-132202.71999827743,-127226.9635006868,-129607.25761197803,-121020.19921897916,-126930.23588482033,-128954.5596631436,0.0
-116727.69375437858,-123024.87841528113,-137338.33128117386,-126933.295041483,-130123.54163222607,-121873.34185732197,-126627.48949838731,-128774.79890010765,0.0
-118093.22657078021,-125273.72077935794,-145142.42892504905,-129093.19910617401,-132687.02394269942,-123156.04800840843,-129434.76089659645,-131766.6701409667,0.0
-120816.67278536997,-128432.81794932116,-153979.3464716406,-132590.0207727791,-137068.9092706411,-126139.34280579635,-133192.38017529534,-135990.5382729166,0.0
-121170.07425956905,-128808.35687404573,-159713.8880051547,-133660.99382855886,-139270.34688689883,-128669.79758667473,-133792.7644073012,-137009.52048860828,0.0
-119758.77420795555,-127745.87249357087,-163438.99686854574,-132913.81003759304,-139106.10673645962,-129277.04026388895,-132821.09114965494,-136160.03065478924,0.0
-120160.32613911045,-128941.98593863881,-169181.6409999354,-133965.63293686026,-140471.29307895398,-129763.16543032735,-134408.29915121308,-137853.99804615407,0.0
-122237.629514523,-131555.2229245869,-176374.62664431758,-136671.868827211,-144030.95556337983,-131726.70087034674,-137558.42509396057,-141364.906986968,0.0
-122626.24212569007,-131954.05789190726,-181186.55732196517,-137620.87990660794,-146076.47685414238,-133720.53332577474,-138211.63496616355,-142399.41923700762,0.0
-121089.31103979121,-130515.29435859484,-183789.52655922377,-136585.10462047363,-145475.51618187735,-134127.73387538778,-136822.4014266369,-141129.53199841466,0.0
-120781.28798273542,-130779.50111213778,-187878.82458850925,-136781.17317655613,-145695.01635775686,-134121.7783734989,-137334.952764738,-141688.83947695582,0.0
-122271.5051063945,-132837.40719439997,-193696.3397130189,-138783.34627461986,-148345.12868194774,-135317.25879710025,-139827.62427014782,-144447.86431949548,0.0
-122629.23358721707,-133316.1844112299,-197731.06234364607,-139595.50876013865,-150335.53027865427,-136774.51036382874,-140563.42780862638,-145525.78119793287,0.0
-121006.2120203058,-131701.351006169,-199384.41819471304,-138352.44731698727,-149669.98585817346,-136910.35387044086,-138999.22965721937,-144085.98265631183,0.0
-120129.9880477759,-131158.4238997817,-202018.8521830709,-137851.65136876208,-148995.51860624147,-136502.34173663353,-138625.58977011612,-143722.3175347027,0.0
-121126.09314415912,-132605.17871429308,-206641.8580413842,-139257.28107424604,-150608.15571344507,-137145.06504507054,-140411.67001858202,-145696.32940703916,0.0
-121494.64470896327,-133156.60798656862,-210126.139379123,-140009.02078068187,-152372.9294042737,-138224.4953642575,-141179.03194426678,-146765.6822555294,0.0
-119855.29092486468,-131566.49588278012,-211096.89842599342,-138670.61427510594,-151850.32910390708,-138123.6432409418,-139617.20018305402,-145333.24727013957,0.0
-118465.02311019436,-130407.3399657737,-212413.83549955537,-137542.15772193926,-150685.27323185196,-137291.16864011806,-138575.7239921729,-144276.32076441965,0.0
-118953.57359067198,-131195.40959572222,-215824.46261344245,-138320.6272494953,-151350.88480263503,-137392.77021671232,-139650.54189988624,-145470.19430535944,0.0
-119357.94899374298,-131707.61858186434,-218847.03829487928,-139024.82173314047,-152657.54148107083,-138198.9025964816,-140350.53938659822,-146432.72835282586,0.0
-117846.70660785316,-130244.06267494662,-219464.76127773462,-137759.7548656502,-152208.63744771876,-138031.44050500717,-138876.6667989261,-145098.0231403914,0.0
-116060.89772577725,-128693.72740835873,-219758.2048040491,-136165.17811243166,-150848.12698003987,-136881.13637517666,-137380.47970858228,-143573.43752945983,0.0
-115992.03496756643,-128887.79318533512,-221951.14668496724,-136285.01361774537,-150872.12395763624,-136405.57698529208,-137824.5771293759,-144069.77199331645,0.0
-116362.43067476533,-129268.60927680961,-224420.76996191824,-136856.63894187013,-151708.7233309152,-136886.2849152983,-138401.42490656418,-144854.985946009,0.0
-115101.34702291657,-127936.05428389632,-224868.79857889365,-135774.47183135385,-151169.7910365483,-136768.1489732304,-137039.66201979353,-143634.05403665235,0.0
-113122.15004887231,-126145.39796329648,-224497.09967328518,-133935.055827716,-149623.7499869185,-135519.07178778492,-135219.25792127795,-141788.18813316346,0.0
-112496.50677893059,-125833.74021732547,-225598.47703299814,-133430.62359278637,-149195.91440014847,-134523.14781476354,-135087.2468410032,-141663.78082915992,0.0
-112653.15943692233,-126025.80931677383,-227358.31486783738,-133702.63568675422,-149708.21834195062,-134515.44668017016,-135486.63415570167,-142221.55115792024,0.0
-111592.3836282071,-124778.8035219272,-227582.50522816653,-132743.52269903352,-149071.02027444885,-134344.02087995945,-134238.42732629526,-141108.03311090733,0.0
-109599.2198695199,-122821.78102930773,-226798.85020326148,-130840.3379319759,-147268.74230400423,-133164.82767525874,-132201.3138719914,-139049.47004448908,0.0
-108571.28991756827,-122105.01357876214,-227104.92171538962,-129900.64281298316,-146384.45802749583,-131904.09749798628,-131574.1445734045,-138394.28184348336,0.0
-108467.28805582841,-122153.50816940816,-228217.91171323677,-129870.46203589521,-146691.13783314102,-131451.03827109505,-131807.79101232043,-138737.38807245047,0.0
-107520.72870243454,-121031.77205623376,-228150.38992960958,-128963.35117061152,-146151.4842276254,-131088.2361969484,-130726.66754359595,-137779.56884659486,0.0
-105587.53597410547,-118964.08780381503,-227002.7471625663,-127051.51936606328,-144202.21806015435,-129946.5498977119,-128581.1291853992,-135620.80902894516,0.0
-104307.78089989284,-117849.85567509674,-226689.199436628,-125808.44146247444,-142774.463458343,-128589.50317205123,-127486.63653468013,-134476.57101061405,0.0
-103973.5741428386,-117717.41691436584,-227289.0417409574,-125515.81707650298,-142731.3787975983,-127842.1431187666,-127479.61624542765,-134537.50327315167,0.0
-103056.08751725705,-116743.46454154557,-226952.19808665858,-124600.0793910755,-142341.50916916042,-127241.76621101034,-126549.25220419136,-133715.49028298183,0.0
-101136.99125534085,-114659.56731151494,-225422.61000569793,-122639.74475760837,-140483.66334766574,-126004.74080310688,-124400.50192333845,-131560.13154625183,0.0
-99658.23971454822,-113182.11386714608,-224510.08672515186,-121127.91772710494,-138618.16014956814,-124544.73977278908,-122909.69734172661,-130004.0599080318,0.0
-99176.96815405878,-112811.9378546897,-224696.93749670364,-120646.42556844749,-138059.1430570384,-123650.54332417314,-122608.60382234202,-129734.17889132984,0.0
-98344.97958382247,-111987.75662574598,-224261.3433869485,-119804.71688596832,-137674.90373101467,-122957.3839639092,-121796.4601380651,-129013.54735929305,0.0
-96457.74610948918,-110017.25482461831,-222487.2805790993,-117858.16446548604,-136076.81293448183,-121639.38976414895,-119754.20416061605,-126969.60477940018,0.0
-94751.06498213562,-108274.69017303789,-220959.60708863297,-116068.68149108114,-134077.2263890276,-119992.43478726134,-117992.0893524854,-125128.92317863664,0.0
-94080.60630301377,-107595.00467515594,-220626.11301950144,-115339.37918391703,-133037.508761811,-118900.48099603289,-117372.85830643431,-124504.81424312561,0.0
-93356.47361066454,-106804.90935927111,-220109.1932994899,-114573.99630276542,-132411.80397183925,-118178.88308304198,-116581.49926371076,-123787.52662998199,0.0
-91588.63009585012,-104978.46083303871,-218282.87036215744,-112738.76363393574,-130933.24820551311,-116897.59722834454,-114654.22838822869,-121870.66070889654,0.0
-89689.61013750226,-103101.72587204506,-216282.56466134958,-110736.13222133715,-128973.28839072652,-115094.36135296796,-112724.75776239757,-119863.5812044274,0.0
-88758.73384981976,-102158.77515341724,-215361.46606026054,-109697.46964798546,-127698.19561174577,-113715.73660526855,-111836.63761968256,-118941.17507418228,0.0
-88098.62108676627,-101343.27095859763,-214667.5195727874,-108945.07602799394,-126843.14521376236,-112907.45388776706,-111036.49846027588,-118189.36925340333,0.0
-86556.34266692675,-99648.92546680901,-212913.53993245482,-107309.87981651985,-125323.82827077177,-111775.03575000534,-109229.33080031224,-116393.29026024164,0.0
-84604.18436882629,-97723.49185262338,-210686.94961124205,-105244.98305946993,-123345.64699899456,-109997.77540797752,-107198.94099677326,-114284.29524006211,0.0
-83385.44047295688,-96578.00765681994,-209236.65516216782,-103896.13979849266,-121962.99589774407,-108354.2663243348,-106075.08756287274,-113099.9768750431,0.0
-82635.2802162693,-95700.21288496535,-208197.24217343057,-103010.26925445526,-121022.80997507347,-107298.41320694014,-105236.15695651845,-112283.6624109339,0.0
-81276.26554440713,-94082.36908395955,-206417.135356982,-101517.52147523013,-119454.51170276033,-106214.9476734194,-103533.84327515557,-110594.45332927637,0.0
-79413.78902608379,-92124.285769915,-204120.33412582014,-99526.50951409388,-117336.84256107594,-104590.89555367685,-101439.33759101879,-108430.59792048016,0.0
-78039.0847320031,-90841.85384699512,-202368.08006354392,-98022.66514893572,-115788.33598788272,-102879.40365468006,-100117.13793525119,-107033.95962276871,0.0
-77160.16899074745,-89953.04924609035,-201027.9519432637,-96997.50245425082,-114869.606066323,-101589.46727677865,-99253.21670244777,-106167.70821250428,0.0
-75871.72094475772,-88430.32293003931,-199106.59811863623,-95539.60288630742,-113432.17889390937,-100398.81238956634,-97680.21133885175,-104600.6362703332,0.0
-74089.17359095975,-86424.58052010484,-196680.48093063734,-93585.63084819958,-111221.20077721517,-98845.77303035346,-95547.93868210791,-102403.39985243698,0.0
-72647.07457485572,-84965.64580025681,-194719.56395081052,-91991.47738038929,-109359.65467913651,-97173.46657432415,-94004.1530733929,-100776.16651093344,0.0
-71686.52942938726,-84049.07361650259,-193213.5623281107,-90883.19197468171,-108321.87873977187,-95787.2951089687,-93067.24642622555,-99817.93909420967,0.0
-70424.64306228099,-82675.24454821632,-191195.62117719452,-89445.89192132154,-107102.70397599698,-94479.01974017199,-91647.58649362494,-98397.56727736536,0.0
-68673.06065928665,-80704.14280808171,-188593.3137967489,-87494.85424014353,-105041.02075760509,-92889.99615770015,-89579.38432246265,-96267.8119730475,0.0
-67188.01864676717,-79077.72254354756,-186388.44166581015,-85824.61017622089,-102955.03134762788,-91236.87548762324,-87872.69001073655,-94469.84480801279,0.0
-66222.01955192213,-78073.98777896616,-184780.5221999861,-84700.63756219941,-101630.12193625078,-89875.81219105385,-86821.35561146552,-93379.65816290118,0.0
-65042.364921180706,-76839.74187826549,-182798.81904660855,-83355.1909938297,-100472.7548729319,-88575.32765051303,-85513.36922418105,-92064.49096146831,0.0
-63310.37832543078,-74983.271283431,-180088.15725563816,-81420.20585156453,-98662.91109290309,-86936.1473933983,-83550.93936328715,-90044.07431939867,0.0
-61720.52131073472,-73243.04235507325,-177561.86621424582,-79611.19507380057,-96573.08692002454,-85176.88579941072,-81733.48604613652,-88127.43214190156,0.0
-60714.15167118938,-72089.41413302743,-175741.32088648563,-78407.4546503693,-94970.22722190339,-83765.60005024359,-80531.74057041851,-86866.86971711389,0.0
-59667.36584936512,-70909.63251015077,-173835.888940666,-77182.9467286584,-93653.82695028817,-82544.0520103813,-79260.76168874114,-85580.28692389927,0.0
-58041.12424773668,-69193.04529838884,-171194.18017219886,-75363.62605295442,-91964.89725242004,-80983.46513270069,-77407.82740105642,-83677.79091767676,0.0
-56354.96783098989,-67439.00043973817,-168442.45499997522,-73455.18915609058,-90019.00699218384,-79140.71223200776,-75560.3791495654,-81733.23067778687,0.0
-55224.8235965246,-66170.51309578646,-166310.66288217864,-72097.69489577929,-88368.90864926655,-77574.41862178451,-74262.32472241647,-80361.58830901972,0.0
-54264.36606610253,-64982.911620981744,-164362.85765192634,-70929.27825004874,-86912.91791938098,-76358.78960249198,-73014.8083274583,-79087.03138075933,0.0
-52819.031710154064,-63357.67795651124,-161862.59175586887,-69289.09632272489,-85167.7578906483,-74960.15004414423,-71251.44628678629,-77280.05096798604,0.0
-51131.277619324064,-61627.2545779184,-159075.46630132734,-67397.25394264654,-83262.89590818148,-73176.4088257319,-69391.84921909703,-75330.15269594485,0.0
-49847.06473488087,-60308.22464481658,-156691.39330073426,-65890.89193879407,-81681.38588935176,-71462.64254454368,-68024.32883173242,-73880.00315198555,0.0
-48855.902223079924,-59126.20615880816,-154576.04246156107,-64669.88874137943,-80271.9777499481,-70116.2465750635,-66805.6175048517,-72620.19698976382,0.0
-47563.13675532557,-57562.479180278795,-152124.57298105798,-63154.15321237679,-78494.63194161205,-68800.95767958261,-65126.53129081242,-70894.25687772504,0.0
-45982.17238302779,-55843.68156975571,-149400.93764904927,-61359.74693241436,-76480.35113089143,-67183.15947911784,-63252.20407256305,-68930.62467636072,0.0
-44636.404251692096,-54500.679040454685,-146927.53938148936,-59796.824427997344,-74849.03209414912,-65475.790914141835,-61809.161728393774,-67397.01247637186,0.0
-43569.60972944446,-53361.70973240939,-144662.00278008697,-58494.03016872106,-73557.40513404466,-63992.095025877476,-60618.69496559394,-66154.4976481193,0.0
-42331.99273112657,-51878.277047703974,-142138.95122666546,-57006.02364705613,-71926.01627385411,-62617.47470446266,-59048.56624351102,-64536.56975397592,0.0
-40862.529255516754,-50153.6924683622,-139414.60858868383,-55296.08294842991,-69855.42914250979,-61101.754743126614,-57186.95024361222,-62590.01472464101,0.0
-39561.31421715919,-48751.42252207323,-136949.93765380967,-53777.428773462954,-68034.42967140775,-59513.6559678293,-55660.364871910446,-60969.403312636096,0.0
-38489.294269766724,-47653.18687884856,-134686.40765550436,-52491.4025364463,-66732.79166455362,-58033.686837083034,-54477.60295380765,-59726.02455477329,0.0
-37263.06916095577,-46300.51304198798,-132130.257505817,-51028.04422546611,-65333.16285652624,-56587.689644043836,-53040.72235241415,-58240.06521172327,0.0
-35815.42783683267,-44617.4738457966,-129307.69461195362,-49327.22214654489,-63414.267506720134,-55040.90527837581,-51250.356892783275,-56369.51606310281,0.0
-34535.53617118601,-43130.633860366725,-126760.65166112207,-47811.20222219254,-61449.81065779761,-53506.66840516288,-49655.20456353151,-54679.532080022764,0.0
-33515.57848962846,-42005.19380307586,-124542.21469108414,-46581.20681171593,-59951.99324354514,-52117.44263700211,-48429.375094241936,-53386.482309699044,0.0
-32352.931348622966,-40771.46918427859,-122083.15822001234,-45202.984581328084,-58625.02876341869,-50716.528561413696,-47087.16961137197,-51991.983940820835,0.0
-30903.987020415472,-39195.43887578827,-119216.35994771229,-43505.41729600319,-56952.696493625204,-49129.49794471475,-45400.96253884376,-50224.46149522697,0.0
-29576.6268158874,-37672.11313569659,-116495.44217727076,-41912.445684599355,-55066.269198819085,-47532.547800085515,-43788.81317914736,-48508.80629101395,0.0
-28593.669066017705,-36478.79240794041,-114218.26379461969,-40682.440618239256,-53411.77412399926,-46174.59211630005,-42512.2415084306,-47151.86228667381,0.0
-27574.91264983219,-35302.96910118045,-111907.71496185017,-39439.98746039271,-51971.784744547775,-44909.5119503483,-41218.56394112474,-45802.784376937,0.0
-26213.93051189472,-33852.90940884926,-109161.37338097022,-37850.39395516166,-50410.4964286292,-43415.72615131079,-39629.54273448613,-44140.85620944245,0.0
-24822.566413335426,-32369.24689082888,-106335.60872982533,-36207.934348161674,-48709.63604707279,-41760.2026236207,-38042.474922066685,-42455.11691488007,0.0
-23769.184665157667,-31134.584129115956,-103888.92785981917,-34897.105590936946,-47099.305544081915,-40302.65678404399,-36741.83363581986,-41068.62538602682,0.0
-22838.70615369411,-29961.261972818807,-101610.21256488937,-33726.931379518246,-45564.17241453113,-39084.76716619611,-35474.46200183849,-39741.31409368029,0.0
-21639.06434328702,-28589.448868761363,-99052.11585671152,-32303.94647184518,-43938.04690212136,-37763.60154320137,-33954.277581762646,-38152.70126093596,0.0
-20284.769876690112,-27179.68649967222,-96301.43736399591,-30719.27563149076,-42308.985441972145,-36194.32810000912,-32403.71627664622,-36508.0976489771,0.0
-19154.019883379187,-25978.79377229161,-93744.933778848,-29336.658732438973,-40853.56709275922,-34653.83205967417,-31118.89344386169,-35133.29794274424,0.0
-18220.83046272587,-24835.7629935919,-91374.21935152894,-28142.309328347514,-39419.313771582565,-33356.50804484986,-29904.72722292295,-33853.28610926433,0.0
-17152.203144396666,-23496.54112515202,-88885.64585936672,-26827.61890239545,-37752.33206820169,-32121.764733371994,-28444.952102787967,-32327.4108851515,0.0
-15909.715461269298,-22099.741391579057,-86261.04300226038,-25361.47639349383,-36015.76338624378,-30714.523434859344,-26897.968642039737,-30692.953674653538,0.0
-14759.392759419736,-20917.44241711201,-83728.61396760425,-23990.915797071677,-34563.8822993671,-29215.095365721943,-25600.878186341728,-29306.502860490542,0.0
-13764.318632337243,-19837.890872056527,-81290.47284572588,-22757.090292405715,-33298.48538116073,-27830.669309029814,-24446.741871092294,-28081.244836849473,0.0
-12725.107112954855,-18570.829589677895,-78766.58305137846,-21464.202709883866,-31790.377064469216,-26561.20536144275,-23090.91808856678,-26655.054621952622,0.0
-11597.125854013982,-17193.790387469213,-76205.93709644777,-20092.743940366123,-30019.798320896734,-25271.5326651685,-21588.002234536678,-25061.74724194935,0.0
-10546.49366913551,-16018.687486106654,-73798.05382622263,-18820.34478809916,-28441.709260125946,-23935.068699402007,-20283.15649875555,-23662.07470695178,0.0
-9586.077473319656,-15016.524727725722,-71454.73529070086,-17639.89774281932,-27218.105828985783,-22607.403296470005,-19176.437561453604,-22478.659616602134,0.0
-8542.963936847698,-13862.693527139905,-68930.01908830559,-16354.783837885754,-25940.60024545246,-21283.73392316705,-17931.30774486039,-21163.13230597201,0.0
-7419.360255534725,-12517.59428699391,-66303.56937659289,-14974.759470444022,-24315.955659575542,-19952.699183306813,-16486.624874091583,-19632.276262883475,0.0
-6417.110902094602,-11289.39904682149,-63888.94016675892,-13730.801002087022,-22632.852031542956,-18678.087753409087,-15148.080564942886,-18202.027828921506,0.0
-5547.715736774407,-10285.909471275794,-61667.70930585743,-12642.357274604508,-21259.508016064417,-17475.41583063969,-14028.33601158489,-17008.107290659973,0.0
-4581.68204585692,-9244.18108804525,-59286.295087115315,-11454.212348932291,-20063.59185483721,-16226.255504256264,-12870.821223495102,-15785.579024639264,0.0
-3470.626017962482,-8013.8471939577,-56673.093724125545,-10096.236820286664,-18691.961484138916,-14872.043914211949,-11537.184522706195,-14370.880411507684,0.0
-2461.4373557134904,-6802.474572840698,-54183.54442680152,-8830.00304069009,-17141.221907012714,-13562.690932304193,-10236.952861513208,-12977.47691962063,0.0
-1658.1403771246794,-5779.213580324918,-51993.303230377685,-7790.620246049849,-15678.061239119183,-12429.111447094627,-9115.687977804013,-11776.320496126982,0.0
-815.5552915629581,-4792.172148054377,-49794.935528162,-6737.203551738392,-14382.905903518786,-11334.662530927208,-8000.734972702568,-10595.593849440447,0.0
240.86024611142892,-3672.4793754125835,-47323.46601655722,-5468.729422937568,-13102.246150686595,-10072.808899716869,-6747.495406318039,-9266.6946939061,0.0
1307.8094716861333,-2524.728740240995,-44790.78822747461,-4169.304058927563,-11752.147797774134,-8715.749194145288,-5502.014205863586,-7930.674649597019,0.0
2152.765356852545,-1498.0839632261955,-42505.31743114829,-3084.082427117726,-10384.751699172904,-7513.482945455484,-4405.176197706554,-6749.961774836686,0.0
2901.687920571071,-516.2746928588551,-40374.35523250285,-2111.60068472328,-9023.487293683233,-6489.694362109039,-3329.3012602598374,-5605.091451835987,0.0
3806.0382750181257,542.3329532386566,-38108.21128539056,-1002.1899280053254,-7671.31879252432,-5404.558236645359,-2137.0468015937413,-4340.365643093431,0.0
4821.780755946616,1608.0607170512021,-35699.29218347999,223.38736449905193,-6397.132861686578,-4141.895844569107,-946.1725319550442,-3063.3183358215447,0.0
5716.763786658184,2576.3557328950674,-33371.24426201596,1350.2837270747236,-5215.601206081004,-2881.3027131359922,102.68178040247817,-1929.846555014531,0.0
6467.894870127117,3526.228690791598,-31186.46592885613,2344.0449622984975,-3976.528658574428,-1797.3835333360669,1122.1101368252444,-838.6643464710563,0.0
7259.253307078097,4564.311289808527,-29008.88055168149,3362.5091424586262,-2581.842190272442,-800.0150903887052,2268.0594877886133,378.3623229012793,0.0
8152.558544063266,5600.066718389962,-26777.7873321906,4459.527895808,-1211.7788030429188,292.73437725031675,3439.8917171644907,1631.564165927326,0.0
9024.172912782604,6507.528825763077,-24557.312282650455,5531.909907692412,-75.99235022669639,1479.0263190130215,4460.356380102082,2733.381018439174,0.0
9811.021083120188,7375.875458156548,-22362.893124581155,6538.212946087029,959.0448425433558,2618.292384474853,5404.841639626752,3748.43030823479,0.0
10584.726962568513,8360.504671371804,-20162.898792554482,7544.07747298687,2194.7584127719965,3652.851891773021,6467.520794908225,4879.831594442489,0.0
11377.635595026431,9390.71248516878,-18009.27318435286,8556.288945515937,3606.447622443686,4649.281603740309,7607.453995688568,6097.498512986501,0.0
12142.219270311567,10279.8499562975,-15955.07649663737,9517.851144627484,4855.157170654031,5675.297733149591,8622.00371480658,7191.286527590804,0.0
12887.724228549749,11059.131095919898,-13898.845016698226,10458.523953201264,5829.265193896801,6738.25687955807,9509.428324119384,8149.330836995664,0.0
13673.297482083923,11929.46950227355,-11725.974080256578,11459.195749350862,6825.506987069533,7807.589500038992,10463.8275032658,9173.063031203712,0.0
14461.337249004886,12913.529713644075,-9543.259791431265,12473.908566396565,8073.872543444986,8831.54589157092,11528.404658905196,10315.805121027497,0.0
15155.462348290997,13821.916556782544,-7540.278045747061,13378.669207784125,9389.538868846448,9774.409732187049,12533.218000516132,11399.693008082288,0.0
15794.051034121032,14580.35410180355,-5655.907424681739,14203.959101444947,10484.246121380635,10685.288895481395,13404.092072729012,12338.257077873963,0.0
16517.492755680512,15345.638896393295,-3645.624609257673,15113.258387532263,11405.305563425987,11666.287357571551,14278.410051110888,13275.517837989142,0.0
17319.612027086147,16226.534702740111,-1486.4814654597199,16121.5852087878,12419.970308293221,12717.180564778953,15246.701648988143,14316.601581749517,0.0
18029.70507803779,17113.447882913606,566.3952675335272,17047.757780807173,13600.440263975132,13699.537887663844,16206.86889983852,15356.344856915392,0.0
18595.70237584244,17886.7127324246,2391.4518624216053,17813.221437046286,14767.288478481772,14536.848041007379,17068.262796103645,16289.393726208515,0.0
19186.595867342323,18606.150229682447,4199.712851341078,18583.15482141394,15782.105817378468,15355.399415988846,17904.15389654186,17188.625411453653,0.0
19915.21849331724,19378.990321712074,6189.655275212063,19494.76099387348,16705.548339260808,16305.888508443853,18793.837054595402,18146.854124042726,0.0
20646.589452928944,20179.819326950397,8234.646667119172,20431.00849657307,17663.202475230628,17320.099300167087,19678.417803879925,19107.958478379343,0.0
21220.76991201039,20928.984978840617,10103.149695375774,21218.466422749778,18696.641304445624,18203.940735531534,20490.74865815566,19992.39034103064,0.0
21712.623175603712,21638.925299808427,11818.284376538712,21904.70175382651,19758.707065956092,18938.610886024966,21286.347687769463,20850.427396062147,0.0
22302.709481389305,22360.229032646348,13589.143617188995,22664.755285381336,20759.8869965265,19712.38154812394,22125.683674587235,21752.942418278402,0.0
22992.681264884515,23078.34194509931,15482.866466624542,23522.293876408807,21646.449600344757,20633.36486983904,22953.05386367079,22651.399825058274,0.0
23628.676895226534,23766.062112566542,17364.95597252318,24342.846359135292,22487.793165947063,21574.434438405682,23710.863332355355,23480.551589236806,0.0
24152.521243430216,24458.50110461514,19128.1885185895,25059.909773572414,23426.370695784226,22375.052333213258,24460.809193439272,24294.544126275174,0.0
24660.0842749087,25176.94404126734,20811.28694325435,25745.482372118262,24474.070072956973,23069.65968349758,25266.488531616862,25162.323737099887,0.0
25225.26307863407,25854.743602451672,22497.04008406699,26467.673176516106,25443.854934791827,23811.323924303873,26057.600700847557,26020.5336133462,0.0
25807.053982179394,26447.733320544135,24215.63823177905,27206.968059592105,26207.44090401286,24646.344790968633,26747.777615357452,26779.232092138333,0.0
26346.770420964964,27037.12492585349,25949.974288429992,27924.677762503146,26918.671265925892,25474.774966549,27400.67198677544,27496.20957521679,0.0
26847.03439301845,27708.989238250855,27652.792121746883,28614.344168960015,27811.332442789226,26208.699263370963,28132.134360313674,28289.51954273342,0.0
27330.433427640262,28398.249864283986,29268.425980244287,29271.79487012619,28839.85097140039,26876.85660054968,28908.31232030675,29128.97930036579,0.0
27807.47160649146,28982.228273631306,30811.62251001882,29899.307117477074,29726.58753093432,27565.526549441936,29598.36909629785,29880.413327126404,0.0
28297.62919581471,29488.507841363567,32387.62919284328,30537.781305188146,30381.759011278144,28314.01070543341,30196.65352732799,30535.00531332145,0.0
28805.766862033597,30053.228724737324,34045.19315188673,31213.234815946173,31040.945954218216,29076.8853873186,30825.795732078826,31220.322172627835,0.0
29280.59451661839,30693.894731635053,35668.300414392346,31865.74591981924,31903.104495356944,29771.253905980146,31523.89482810282,31979.31309669529,0.0
29680.038834128794,31285.215694202656,37133.76958876428,32426.549488336495,32841.177475649674,30374.053541403933,32191.600363913793,32708.158239792763,0.0
30064.794183053375,31768.78462557791,38523.37905160829,32949.53713913395,33608.27579048899,30967.151366506627,32771.40615537393,33343.5525509962,0.0
30524.310870144036,32240.844233486572,40020.38940812178,33547.861522440704,34200.56973998225,31643.36422298,33333.99322653402,33960.53469375101,0.0
31022.28284726702,32784.96233928224,41618.58697629578,34206.75415624251,34835.4669028464,32369.477432830558,33942.91020199537,34630.231477292255,0.0
31433.382171321922,33346.907138457565,43117.290055510064,34789.9982931012,35627.82593596276,33013.55041678079,34556.76148666026,35308.05626355535,0.0
31742.600670569736,33841.52295846533,44429.19236536147,35253.30145703649,36456.21746671553,33532.275756741066,35120.621205623276,35929.71379311602,0.0
32083.159932263974,34282.37093082066,45716.543285412416,35721.510449970905,37152.58170614757,34048.15986646343,35654.853805882565,36515.79702810108,0.0
32529.77466210761,34736.29883351808,47139.018607998194,36291.75045941419,37715.94763022248,34677.52621563081,36195.57020419569,37111.40845075529,0.0
32976.677187246634,35213.44830270026,48613.70602239137,36879.60164682793,38286.019340543135,35351.47960845157,36726.059716935924,37701.83023473386,0.0
33302.80770550922,35676.11743987534,49955.34662934774,37356.569220800586,38962.0543901113,35911.04579699413,37226.437048967055,38259.299877890444,0.0
33558.54226137624,36111.018358488654,51154.25513550481,37749.643603811484,39695.45249449552,36345.04028795692,37723.0115563016,38806.16853579945,0.0
33880.90165114448,36527.24637619301,52369.479863673034,38190.109158297964,40346.73344116483,36808.423003893804,38231.0660200428,39363.22230764331,0.0
34282.57941993564,36924.770215963326,53685.824148385174,38710.07863180799,40853.6453502093,37392.25182795598,38712.92621461432,39897.074653953576,0.0
34645.48946558493,37309.89684245486,55011.254719476914,39208.66444242664,41322.87599978258,37992.87616771292,39147.72528548461,40383.065490900146,0.0
34904.88646853428,37706.84589357933,56226.969563064384,39612.20621483085,41907.26375265294,38469.65528999398,39582.09942175408,40864.01808969829,0.0
35129.87094515247,38112.56650068999,57338.596513218574,39966.28212090019,42594.94854363046,38845.92759878321,40050.74050773461,41377.995547234765,0.0
35408.43836076119,38478.95788075923,58446.40007054805,40352.967699814966,43199.547132261585,39263.97302288413,40504.73922408259,41880.5412784625,0.0
35733.84864847587,38791.410949675934,59618.89130410327,40785.577223575965,43618.85195642843,39782.57157180299,40891.552498980614,42317.62836494764,0.0
36036.42769926471,39110.91223014745,60822.6666369384,41212.76996232084,43999.89261649204,40308.18797913776,41251.988496384896,42726.322074441654,0.0
36275.7029627601,39481.342960830596,61961.72185124676,41585.166420289854,44536.77121674095,40731.07508794205,41654.897852430084,43175.15114850112,0.0
36473.74167759313,39847.45647875664,62984.62765421504,41900.28943385407,45182.2314452511,41066.09832305931,42078.054061258095,43642.892154798195,0.0
36686.1295201009,40135.13209698915,63958.62368980946,42207.9143074322,45707.053452191605,41424.787787572874,42445.29813058975,44052.170207648785,0.0
36944.38730431052,40376.52271841752,64999.774520328254,42561.98820682929,46038.75204046143,41871.280355320894,42756.71778178613,44402.714518120076,0.0
37212.68923172486,40663.4646866967,66111.26472674083,42947.2547805957,46368.005107212084,42341.86101316182,43086.02623316558,44771.53070502673,0.0
37418.73700493461,40999.52113846416,67157.31121657038,43281.45600734363,46864.37739922606,42723.63328163333,43455.171140751,45182.77789111644,0.0
37549.25868339583,41293.5287929942,68046.74881588727,43523.29655989635,47433.6717657782,42998.70581173862,43801.58018829877,45570.905121215124,0.0
37686.699023077024,41502.57197648534,68879.3405333506,43747.09807269578,47862.31395722615,43274.118406141366,44084.79743036204,45892.18668288428,0.0
37904.463102166694,41698.382600248275,69816.64617604483,44048.644043158376,48127.36941295232,43647.73705543735,44348.77186075958,46193.00548603803,0.0
38152.595777192386,41952.915875311395,70842.1325690342,44399.0020272595,48416.29628815999,44071.99096040913,44643.654036752654,46527.560363388315,0.0
38317.70322777805,42231.988638839175,71775.55955350718,44675.10194488088,48852.538877815445,44408.22774670423,44949.058089197715,46873.59893511084,0.0
38390.20993139702,42457.962428854466,72536.02658442716,44840.71207394135,49336.78661492515,44618.63751801549,45218.21602676368,47179.279661842935,0.0
38485.77223018672,42622.31395142231,73261.61292395301,45006.099274619,49694.455378603925,44826.67508240866,45449.13564591609,47443.14639225927,0.0
38672.80600832005,42783.17437012498,74103.62260408484,45264.295268053575,49907.891925352415,45144.83902532842,45671.05643091028,47700.1966517502,0.0
38869.53254957554,42976.91566069989,75008.65623213745,45554.72564608752,50129.11510391868,45511.382609984474,45896.24289933236,47964.26078580115,0.0
38969.926451261825,43182.64262291134,75808.8396541197,45760.65660031279,50479.35494326724,45778.45184860952,46120.15567345649,48225.99661713927,0.0
39000.76505752233,43363.1462294725,76465.23030125289,45881.078926829694,50898.914389810445,45926.90431467106,46340.00487955008,48479.76813736491,0.0
39075.068957629395,43503.06424951287,77108.89413600555,46021.58788990391,51220.50904290665,46092.63691162165,46545.09496525012,48717.91598464595,0.0
39222.6311583321,43618.04531560124,77845.96224585289,46233.69622113612,51384.577707426215,46368.43333401266,46717.63907720549,48925.686614640275,0.0
39355.083590696,43740.63111503846,78618.717484715,46449.02407942334,51523.97491897738,46672.64541147102,46866.07169261119,49109.5518131632,0.0
39401.053118588636,43886.62901043118,79299.25351631067,46586.924783338625,51793.7907114791,46870.401830323084,47026.632180703666,49302.05362965139,0.0
39400.484790131886,44027.84680843636,79859.59129727799,46661.42331789774,52158.66472851899,46963.845395474724,47206.422928841486,49510.28912197937,0.0
39439.791528117115,44119.37091839515,80398.87358223207,46752.36992337681,52427.3862756769,47082.69378337752,47361.64660320369,49693.50466603931,0.0
39536.9777006599,44169.41916373742,81013.63049601653,46900.15371993059,52518.79770301297,47302.51127708637,47465.57272317945,49826.848539780854,0.0
39627.22082961443,44239.27496431219,81676.4618005838,47060.9657951882,52586.03830499696,47546.16100922047,47557.49294311578,49949.03564168561,0.0
39649.27650636051,44354.15576871132,82270.00548626775,47164.94813267477,52804.92330673673,47693.8586485249,47683.24465812431,50104.548045921096,0.0
39618.157249243806,44458.64985027716,82736.02870870312,47200.59049298341,53122.51306099241,47743.62349937003,47819.79594404327,50269.34911127292,0.0
39605.676406624996,44494.6543684669,83157.9662464632,47231.52180925335,53326.180493271626,47809.445986410334,47909.96129698098,50385.91862212566,0.0
39652.22472859958,44493.96217884991,83658.81275263097,47319.36070772614,53349.45981369627,47969.27156504678,47954.771215481254,50456.336663735965,0.0
39711.1683562519,44532.84198209994,84230.1666862874,47438.81821574236,53367.49159309288,48161.85362946658,48010.54223877146,50538.544033744154,0.0
39702.16634731471,44613.8831517437,84731.47324744683,47501.86047876795,53542.48108116356,48265.42130709286,48097.121171780556,50652.08640653935,0.0
39619.90154440791,44662.0523133455,85082.6399501686,47476.839558786014,53796.48523150898,48260.286649201385,48169.402287611134,50749.45559883221,0.0
39552.12539117743,44637.1411952542,85386.43782027978,47443.3783414121,53926.0408957223,48259.692126291564,48191.24520526912,50793.618620071626,0.0
39561.70789483949,44592.03356070318,85789.93278444561,47486.421975641635,53889.8776543162,48360.036542385584,48188.39335621428,50813.17233828577,0.0
39593.209763566716,44592.14511243394,86272.5641805536,47572.355032031046,53860.595256935965,48508.25331650768,48205.02585644707,50854.74135137054,0.0
39547.755541647486,44624.64098620255,86673.30286498583,47593.625510075835,53981.328069039584,48572.141847714294,48242.7538480511,50917.32782599702,0.0
39425.75084073557,44626.30824224933,86921.18460956142,47522.85934702249,54176.83183735401,48524.128900643496,48268.66683428409,50963.57276244094,0.0
39330.66580888639,44573.462881813306,87137.39023624532,47454.527028111675,54261.6806255744,48483.49217387267,48263.855811492635,50974.78404906038,0.0
39320.21752016064,44508.519141063014,87461.14821922116,47468.011272675,54191.93452217146,48551.0382981321,48240.42276563814,50967.63817246896,0.0
39320.50303429201,44474.43149305092,87850.41220926754,47510.97844346359,54116.61131986587,48662.39958713176,48216.77488386861,50962.81882285047,0.0
39231.35327080817,44457.102820079825,88144.14382151715,47474.52901697139,54170.955884060844,48672.69536790295,48195.3668300261,50960.255124085634,0.0
39069.149792246455,44409.20240777953,88288.93287629637,47347.84962220659,54298.37958856801,48560.30637652025,48163.55331312758,50944.96597007992,0.0
38941.80832829637,44310.161969370376,88408.09458931765,47231.16126086646,54325.791373769905,48459.2550406171,48106.14222159512,50903.06351993815,0.0
38895.09430742963,44191.99844228525,88626.9959853904,47193.359349056154,54198.15674050838,48472.61734066352,48023.18859551468,50836.49574330858,0.0
38854.053639208316,44102.287330634834,88906.2511119569,47182.49590034443,54058.32307872389,48531.7805072644,47938.26278584378,50767.81119580567,0.0
38735.14246889739,44048.042193056215,89106.67711552289,47107.33178888043,54058.6141627953,48498.59947278247,47876.323140873414,50719.739866096934,0.0
38558.87863662252,43984.96938611565,89178.87555382306,46960.609619925686,54153.57027572522,48358.95795843635,47826.64325069744,50681.55184646543,0.0
38412.50152354841,43867.9960676993,89222.0869125125,46819.81810744225,54151.409349475616,48234.75360110582,47747.37555891521,50613.25417122556,0.0
38328.59442620678,43713.836490691625,89347.93574896542,46739.17614007379,53976.881747337546,48210.515904302076,47623.62945465191,50501.20416705543,0.0
38246.694820970326,43583.157966298764,89532.66899988774,46681.15512441192,53781.74109354317,48219.61871662425,47494.29103989565,50384.035473152704,0.0
38096.91548199737,43494.262333885694,89648.73060275009,46568.33363511265,53734.666512830576,48138.17723641402,47395.63589056691,50297.080124785636,0.0
37890.35181262512,43393.0805275221,89633.55291897796,46383.85387538605,53784.35590391397,47953.29512492978,47304.3566490667,50216.41849466419,0.0
37705.24264240863,43228.88360392581,89577.66971396255,46196.643441019216,53727.593825476884,47779.31285099757,47171.826037450104,50093.54784277407,0.0
37584.609228869245,43031.70424988859,89607.38560211094,46072.50329530203,53496.829256450714,47703.623207198645,46998.931099744106,49930.36008768773,0.0
37477.37827623252,42870.51315198162,89710.04782232946,45983.46155203541,53256.60082512692,47669.65827079138,46835.00661961426,49777.08491012541,0.0
37305.14804557032,42752.852726709025,89746.80994930997,45842.25119669058,53171.222319412685,47554.66093202855,46705.04843452326,49657.50636672019,0.0
37069.3759279677,42615.87391442608,89643.9512336477,45621.35905946826,53177.73832049175,47337.566477615794,46575.80371375852,49535.74406495503,0.0
36855.06293031861,42417.895138349035,89501.22728719504,45396.662778553255,53075.90891808159,47129.72386383222,46407.167517246366,49371.56624728977,0.0
36715.349703232525,42198.32104665052,89456.83803689883,45244.27808615828,52809.58084275233,47023.85710231067,46208.517689896835,49177.83607912462,0.0
36591.934016971914,42016.46466636104,89489.40907032626,45128.813380216045,52538.694387373354,46962.04721231605,46017.893622136624,48994.93128446223,0.0
36392.74426812547,41866.57711953889,89445.31662709724,44949.74373674776,52411.48509206924,46810.979314495926,45846.44087588006,48831.67592146535,0.0
36124.117685180376,41692.43317745088,89256.88255270344,44685.40482387343,52366.56829009238,46548.792476977906,45670.24458909998,48660.718247296085,0.0
35885.61161141341,41465.26034730626,89038.0692894471,44426.57894124613,52220.201741838675,46298.96150568426,45466.395285521365,48459.461472146235,0.0
35727.4733092601,41218.083974438756,88920.73670769046,44246.02113016506,51916.24899360816,46158.568839215994,45239.15574924177,48235.189929803455,0.0
35577.18965918586,40996.743599399044,88868.08029136658,44093.99601020696,51599.580627999596,46060.950647395264,45010.77785656082,48010.949008630225,0.0
35343.81451585947,40801.855889785074,88731.83795430501,43871.92227620245,51419.50487437786,45869.07381669235,44796.2789028836,47799.179073699655,0.0
35047.52469501223,40594.62121408833,88462.22524657303,43572.83296337897,51332.26833277583,45568.94749221766,44587.461538023155,47589.984982676186,0.0
34789.74759396809,40346.9346674495,88173.90878494328,43289.43467803817,51157.89236254139,45288.92307360985,44360.461052457154,47361.46928888172,0.0
34610.308201473745,40078.85443585564,87985.81706850318,43083.56292454118,50825.62902702228,45121.37980752385,44106.1956743529,47107.57183043464,0.0
34435.74592483124,39834.29033155776,87860.80795360092,42903.709461385755,50473.83583946391,44996.30306992782,43846.69695447808,46850.24146885741,0.0
34183.91467695657,39621.61041369654,87660.33645809117,42658.99459711234,50260.37892020223,44779.00461282925,43607.17435260426,46611.391371559715,0.0
33873.632186085546,39398.67529273339,87330.87462845753,42340.221398097245,50144.36130549628,44454.71768608649,43377.31008490104,46378.245320996655,0.0
33595.47833273192,39125.75564899754,86973.1745314062,42028.97122547806,49936.3960719161,44145.57669784831,43121.207271578154,46116.18726252423,0.0
33388.35296184646,38823.394053041375,86706.08960124495,41786.601131798736,49561.85834066042,43941.34898219966,42829.81528383867,45819.68304582211,0.0
33189.451915023834,38548.140129844774,86506.75440261609,41573.49471044369,49169.279468366294,43778.31829606579,42538.04184472502,45525.35695946308,0.0
32921.5426321218,38313.97774867517,86242.52632055047,41304.76529146989,48925.374522713595,43529.701566562806,42276.0787921218,45261.67861748894,0.0
32596.90753071141,38071.517991495464,85850.8915436587,40964.206753632934,48783.93617471809,43180.20348490984,42024.69334395426,45007.0578092392,0.0
32301.633008289285,37775.71545027079,85426.8753690522,40627.31189159785,48546.386727143836,42845.735329168434,41742.172518684194,44719.84992372937,0.0
32079.696895432324,37452.15434611691,85095.97977046006,40359.76921761486,48139.11456153739,42614.86225961723,41425.1061897111,44398.57203581654,0.0
31871.242753388273,37160.855493951254,84839.49860709063,40125.97479124248,47716.00404913381,42427.43180213311,41111.613351254,44081.98108250191,0.0
31591.474298329427,36909.09997885033,84516.97845909199,39835.43418037165,47441.57027941071,42155.98508003107,40824.99638381575,43791.20975219945,0.0
31246.48164900083,36642.48947292934,84059.9502868523,39466.93411302264,47265.420087647435,41780.84298585452,40542.7803267792,43501.074570250086,0.0
30928.210538353465,36322.283697998464,83570.00864180231,39101.443073199356,46993.51392709231,41418.158979353364,40231.67202465527,43178.500763085445,0.0
30689.186945554084,35980.96606969212,83180.53943531023,38811.899344097415,46559.41173146498,41161.78999618465,39894.971451181176,42830.4886478518,0.0
30468.858727434897,35674.816059982855,82870.35093864989,38560.82180088975,46114.8179832143,40953.55058746272,39565.21094581762,42492.699992602626,0.0
30176.6009468243,35403.549230806595,82492.15590141705,38251.27430063359,45815.93801311859,40660.625354131196,39257.24437662241,42178.672269487884,0.0
29817.083535978352,35112.53948103116,81976.38591530586,37860.78500770219,45610.01845134592,40257.72287679811,38949.08829771876,41862.72656034003,0.0
29484.114039077576,34767.373665143496,81427.47537701442,37473.39931109134,45307.27674794841,39862.69497296004,38612.54389407631,41515.68409391935,0.0
29229.294191120305,34401.3475669536,80979.172974342,37163.01977229515,44842.9625531198,39575.39593097853,38251.41395787656,41144.06007040298,0.0
28990.548355099367,34071.027630128374,80609.95647897202,36891.607968707925,44367.40425961027,39341.45222418971,37897.47181167421,40781.59422539169,0.0
28680.60045530541,33781.65837436581,80176.295313576,36564.402781436125,44040.549915824784,39029.453825274664,37570.28555387676,40445.95687186084,0.0
28308.628624574125,33482.562771872654,79612.2702251811,36161.06592898028,43816.462169943705,38614.15537000774,37251.88039204524,40116.37752766785,0.0
27966.461583757733,33132.722135708136,79018.32740794844,35761.70958410639,43502.86515984278,38209.80194418966,36907.990499720225,39759.03240265866,0.0
27699.10002814041,32754.858376083284,78520.08970741533,35432.72948191659,43022.94270525922,37909.3686123914,36531.81230462078,39369.95939128095,0.0
27443.002532886876,32404.92339904719,78095.40965403299,35135.37635652444,42521.21035854305,37654.87030864816,36153.88302148199,38980.79085009587,0.0
27117.134048404052,32097.20409866043,77608.98252491487,34783.63263128177,42164.930477329035,37318.838854237125,35802.659292165205,38618.1116123218,0.0
26734.588334255768,31785.307437605894,76998.8277909064,34363.231841592875,41915.34884531021,36881.214443836514,35465.124817659555,38266.92558744438,0.0
26383.40687774092,31423.036198509253,76359.67667384983,33950.22392983964,41577.6646918125,36455.65710513061,35102.78393487422,37889.08763943979,0.0
26106.510736036547,31030.482598325394,75814.19231133048,33606.913754680885,41072.25282961359,36133.44998426943,34706.95277584295,37477.9243686687,0.0
25844.824884976868,30668.446264640585,75345.94409025492,33297.47538209683,40548.15137002929,35859.654964767455,34313.49291881065,37070.235616980906,0.0
25518.256267532382,30352.891728634502,74822.09717490587,32937.233446991115,40176.000726105936,35509.529126990885,33952.59346231817,36694.86048560315,0.0
25133.334343379276,30032.55851428389,74174.46787495098,32507.572306459035,39913.27435195236,35060.45507938478,33605.64950608189,36331.5257989432,0.0
24774.2932504557,29659.330965579717,73493.81569357344,32083.04974959248,39561.33287327129,34622.456619495984,33231.196937085704,35939.27829048208,0.0
24487.100748509358,29256.004672450636,72906.01564256138,31729.522139650595,39041.07819134176,34285.9235655007,32822.93753211077,35514.54322420884,0.0
24215.363552845112,28883.313761987774,72396.76454449048,31411.908416484344,38501.95825099145,33996.574671583694,32417.087054230877,35095.098155766995,0.0
23878.807349343893,28554.873520293695,71830.89005977366,31041.832946094768,38113.19460716969,33630.696327372556,32041.597145053798,34706.53248472062,0.0
23485.197171944597,28221.199633806147,71139.99500892853,30598.91784375439,37832.76749916426,33166.663478243405,31679.045509451953,34327.857693301085,0.0
23121.898277861896,27838.883030700483,70419.41935159458,30160.631048368246,37464.92254609143,32715.65281666039,31292.39581337719,33922.05446354963,0.0
22834.610675372885,27430.723324003116,69797.35199118975,29795.74805802214,36931.03180334968,32369.076114891115,30876.511565473993,33487.370436287565,0.0
22559.63627093504,27050.321299703082,69253.77558105343,29466.768117027634,36375.86600742659,32070.054847613763,30462.27290805123,33056.349500535944,0.0
22209.04310024088,26705.468651337982,68646.83393886301,29080.900720531306,35964.57767858474,31689.352440406776,30072.129726385505,32649.153538673156,0.0
21794.166491661763,26351.473031537014,67911.69150856047,28620.463194026885,35660.167268084355,31205.743757044922,29692.12511751482,32249.562726475462,0.0
21414.724498397936,25955.051518275548,67153.47228418123,28171.07228112725,35276.734688848286,30738.37063494979,29293.939178089353,31830.72288685408,0.0
21123.2955414405,25542.25497678333,66503.21752407464,27803.67114534619,34737.267703802616,30384.036847162184,28874.120999500366,31392.358909193117,0.0
20853.82201605498,25163.444532711845,65936.69065458568,27475.779105431822,34179.796479633216,30083.797101505417,28458.48186282,30960.501469980114,0.0
20513.27658110786,24823.737106820052,65308.95889082539,27090.620914267398,33764.92137909479,29703.42275078417,28067.061018861605,30551.905651315858,0.0
20107.409363942206,24475.655342692702,64553.280981678545,26628.91845514751,33455.40658604759,29217.715502162155,27686.24044038368,30150.409164314056,0.0
19730.237894989947,24080.71320495669,63771.16201785124,26174.253301846427,33064.36537950644,28743.846526643858,27285.580401621104,29726.717212669297,0.0
19432.055816496748,23661.088453796325,63091.254338789986,25796.585685158712,32512.637269424948,28378.367654401183,26858.488573014452,29277.405111823857,0.0
19150.170375070535,23268.788080514547,62491.45697672692,25455.899515798446,31939.29230985019,28063.44041180622,26431.153605444913,28829.976036432272,0.0
18798.548710596784,22914.82360202088,61831.43729795395,25059.988672504438,31510.13051978164,27667.793903163874,26027.390002384313,28406.485025200724,0.0
18388.112903349596,22556.518124492606,61046.59314262165,24592.074051027663,31191.283024753953,27169.43430077391,25636.185235698853,27994.04586366806,0.0
18012.741970007744,22156.345956889923,60237.61104584214,24134.584151339095,30793.236506694702,26686.388073925023,25226.795110104165,27562.612528939222,0.0
17720.50248872465,21736.745338984896,59534.38773978758,23756.70222138176,30233.783477324694,26315.363575201263,24793.55233459032,27108.7271678623,0.0
17447.292823734882,21350.645530168807,58918.106749184626,23419.703272453717,29653.672191729158,25999.603462001327,24365.48950632911,26661.951802493797,0.0
17103.199736049413,21006.02523251784,58246.35920982796,23029.26075528013,29220.36377496438,25606.278299473808,23964.844409786685,26242.23927585474,0.0
16692.051675174087,20652.141658744215,57445.83189729816,22561.226756919797,28896.61719627998,25107.289649842056,23573.427127550418,25829.04006299576,0.0
16305.414714360359,20246.12302000906,56611.72945397191,22094.136660561497,28488.74451069833,24615.772815985536,23156.374311032305,25388.2184519345,0.0
15998.772359858573,19813.65292467777,55878.30919997167,21702.59306760233,27915.803462763193,24230.61556536051,22711.80287698437,24921.05779410883,0.0
15717.370926791122,19414.705942997225,55234.47103262074,21355.296933885435,27323.43249989908,23901.56503482649,22274.272815342443,24463.65838714512,0.0
15374.15896627696,19061.66163954145,54541.163027983275,20960.26345249886,26882.415527713463,23500.553019369494,21868.260526172155,24038.27679484232,0.0
14970.132022341391,18705.12190713001,53724.34428672955,20492.389886209818,26555.986867711345,22999.856824652732,21475.839496612152,23624.0750470921,0.0
14591.582161373051,18301.102649346503,52876.399263441395,20027.872815796953,26148.448178703642,22509.20438654239,21060.537372445087,23184.909639122037,0.0
14289.940266951893,17873.28374186305,52129.25613095749,19639.012272555632,25576.46626061997,22125.369386674844,20618.083569943323,22719.204157277774,0.0
14010.830152646855,17481.303135675436,51472.65701009267,19294.785088405577,24985.371954364622,21800.336222208025,20183.07418373753,22262.29903073382,0.0
13668.885409320403,17136.541554467047,50768.353614450025,18903.79512600943,24545.440216607218,21406.246412613225,19780.433614275655,21836.845524665197,0.0
13265.26981933544,16786.237958619236,49940.64028980414,18439.713008154507,24218.69453668964,20910.85843084276,19391.437174342667,21422.314534431593,0.0
12888.076166384375,16384.828138557146,49081.87521009796,17978.678376569602,23810.94777155451,20422.201557462184,18980.72545770574,20984.543948440507,0.0
12591.871301174206,15957.844255060652,48326.33344760799,17594.178712280333,23240.859489443163,20040.10702244915,18545.659059781232,20523.74301969969,0.0
12321.861794113687,15567.038211822633,47663.85989941875,17254.39461397621,22652.159690285596,19717.81664079153,18118.948949318914,20073.46885151006,0.0
11988.400627112265,15224.233655379307,46953.110050415205,16865.53629002855,22212.334844165667,19324.78033872149,17721.918078666466,19652.387800604047,0.0
11589.412465084823,14876.447399518209,46116.09373756313,16400.55238056812,21883.479757949717,18826.984137532425,17334.25425185971,19237.65392254993,0.0
11213.49136558842,14478.16185289868,45245.96465079252,15937.70398472287,21473.671279212493,18334.743511595294,16921.118130286093,18796.043811048923,0.0
10916.461976874301,14053.922487811868,44478.10195711839,15552.525153715906,20902.09372951624,17950.305963214665,16480.791622028853,18329.822467371432,0.0
10643.39974190408,13663.661858261195,43802.17736355264,15212.882195375401,20311.07736599438,17626.075095323842,16047.69493918147,17874.27232006693,0.0
10306.10063913534,13320.180717515279,43078.62523636808,14824.654811058921,19869.456514700014,17231.198007681833,15646.865382398397,17450.93620308349,0.0
9906.586360162168,12974.479965561375,42233.30725234605,14362.239557206221,19543.22629586612,16734.13825729456,15261.136892929744,17039.715909975108,0.0
9536.432278928414,12582.97678339452,41360.58440456847,13905.056220370623,19140.527696068744,16246.201975092616,14854.714379996785,16606.324046442045,0.0
9250.966853806915,12167.914531112332,40593.67999294358,13528.074694972336,18575.98960157098,15867.233802914316,14422.212174629709,16149.069765575148,0.0
8992.860598565398,11786.251134796157,39920.39355507739,13198.368072780355,17989.093597853953,15547.414165069318,13995.560044348045,15700.762020501988,0.0
8671.571896366515,11450.260550385703,39200.48130220307,12821.951423673207,17550.425684434456,15156.278103236195,13600.003859509523,15283.746120754637,0.0
8286.745764281182,11111.706962145228,38358.477919627716,12372.64038293637,17228.886269299885,14663.730514090617,13220.173668025247,14879.994225749879,0.0
7927.92964686659,10727.48321033865,37487.82997929852,11928.113451397034,16833.56770365061,14182.11530793167,12822.386927711914,14456.44453079129,0.0
7650.139589237395,10320.19085508291,36723.27881548699,11562.682852876009,16278.424225853234,13812.031441554642,12402.349681840344,14011.250943764193,0.0
7395.940824449286,9945.916603211173,36053.27320821111,11242.76661261672,15701.148465073098,13502.623598818715,11989.518175090205,13574.571774042577,0.0
7074.093955072114,9614.81563998923,35334.656991140946,10871.599513487348,15269.994143091659,13120.050134445895,11604.211919059699,13164.492849886994,0.0
6686.162405018271,9278.58371242578,34489.74859080365,10421.235556918093,14952.752733086245,12631.767830025356,11229.189526725497,12761.478489757508,0.0
6326.287110878429,8896.636684657486,33613.41903650647,9971.486454906595,14558.484589333997,12150.397521348603,10832.565745433827,12334.823706217314,0.0
6053.0710090805405,8494.062968304475,32843.38358662556,9601.091959135452,14001.618868360627,11778.835827215415,10411.919197964107,11886.334443117315,0.0
5810.567250278176,8128.281887776141,32171.409825202027,9280.95146663889,13422.416100999037,11469.8628102153,9998.670350782128,11449.803380610418,0.0
5506.2971278522355,7808.507486357389,31456.622097997868,8916.392621535519,12992.559459136217,11091.545107210646,9615.261932728099,11045.205727752355,0.0
5136.840130634838,7482.924155120486,30619.93002402448,8477.836982618983,12680.741223840263,10609.465483516751,9244.72765198247,10651.758634373651,0.0
4791.0725948948175,7108.48568656723,29752.934608919386,8042.579126669817,12295.190517632356,10134.739129336793,8854.895971294212,10236.758420477201,0.0
4526.419409348096,6711.615599352039,28992.50433207681,7688.212976862021,11749.615049708236,9772.070170920235,8444.306318842728,9801.289901251857,0.0
4288.702563094819,6352.6059951016805,28331.110170668017,7383.987435501096,11182.62755152708,9475.36789917071,8044.485022027354,9378.457856123694,0.0
3987.4688631041586,6042.345692973828,27626.920450130707,7032.665276575789,10764.20956371801,9110.529349763689,7676.136357477419,8987.081813872921,0.0
3621.8630093629313,5729.325451800657,26798.939344737442,6603.659615349738,10463.82644890666,8641.077804486822,7320.833050764516,8605.767929777217,0.0
3283.142530935631,5368.859295645355,25937.873666590738,6174.829088926219,10090.67523561026,8178.098837671356,6945.308407569385,8201.131847249886,0.0
3027.8183751305387,4983.38419221519,25180.46519297021,5823.99910998194,9556.19502585932,7825.646271778673,6545.833351426286,7772.409105662438,0.0
2798.6236128531227,4630.702666827736,24520.402936911105,5521.462806149964,8996.719889163063,7536.189948153109,6152.493007429426,7352.0179649618785,0.0
2505.793266746819,4325.645274479391,23820.848062217363,5174.751461227268,8585.373018964096,7177.836904563071,5789.544111941636,6963.286299702852,0.0
2152.3187350845596,4023.6699989081026,23006.72343590244,4758.981530929471,8297.538690474454,6719.4307922354055,5444.92714185317,6591.82293475523,0.0
1828.3529987829424,3680.3286372981247,22167.267630527233,4351.138638341157,7942.42182507766,6272.487246550343,5086.097983738537,6204.9427724763245,0.0
1585.2247596555962,3311.527224692145,21431.2440360049,4022.259518146425,7425.236431304826,5935.670060579758,4703.948765075897,5796.019565515432,0.0
1364.92163254409,2971.0210503987437,20787.55431778358,3737.9089145379958,6878.361572683232,5658.256761835582,4325.335565013435,5393.218719171409,0.0
1079.4863017861903,2673.20896607136,20098.25132422417,3403.5298483964757,6474.946217818429,5307.832155422482,3973.842683883251,5017.9148735024555,0.0
731.1148026800033,2373.256162093247,19286.708146354955,2992.3299914919344,6190.764834071578,4851.4909398869995,3635.194396749244,4653.226925616211,0.0
411.4163888241143,2029.7028191320583,18444.65695170877,2583.6662137115213,5837.123581902007,4401.955605217381,3277.0879148620143,4267.556362233359,0.0
177.09139868662464,1664.839402785569,17709.09568024569,2255.5067180710394,5323.288508153372,4064.221913871401,2895.584114629939,3860.146010155279,0.0
-27.27341395952533,1336.4140262922826,17076.006158734475,1978.947585677008,4784.692018158899,3793.4553041104955,2522.7701093202754,3464.5271152996193,0.0
-291.3693622207928,1059.343015051292,16409.76393524476,1661.8518248847686,4396.72969314113,3459.788339532575,2185.2013601845315,3104.8599268155403,0.0
-616.3849269480257,786.6741917389413,15631.554957857203,1276.563767520038,4135.935719298059,3029.0088916147483,1868.9274981206947,2764.0481854698915,0.0
-915.7290392774202,470.57072124210737,14825.834309084186,896.1521100450608,3809.2019125333636,2607.080618377725,1536.6668438973677,2404.9361523114426,0.0
-1137.7517943750706,125.23000105644988,14119.871955426732,589.2870666308272,3317.254738331323,2290.0353951272527,1175.4959212362237,2017.820884779869,0.0
-1338.3677170051874,-194.7369530735111,13504.086062185814,321.8909624712753,2790.0702091691005,2029.5259182527943,812.0788541988584,1631.3374196535242,0.0
-1601.7257128801064,-469.79124379216745,12845.463027422289,5.011374737693365,2405.832740626597,1700.3749571650264,476.47514768335975,1273.298759384115,0.0
-1921.8285111302278,-738.5554258268518,12072.74557667483,-380.742867946238,2148.8719992187707,1275.7161136685954,163.34217310290097,934.9078783397626,0.0
-2208.9160349689973,-1043.9126626044247,11276.425726952395,-755.730830337244,1831.1617135895663,865.0738031350022,-159.08728502655686,584.4882701875906,0.0
-2412.732460356519,-1372.6440951005063,10586.364813074837,-1048.528559946242,1353.885263114959,564.2953728741242,-503.4424555095096,212.91636205648044,0.0
-2592.33357844199,-1673.6015995535963,9993.373663594328,-1293.1586634957646,846.400000338025,323.5252575895079,-844.7429236489373,-152.58255381434617,0.0
-2836.0916507299353,-1930.8636989515749,9361.652999448474,-1582.6007948739302,485.08717435503684,14.118007676268153,-1156.0857273616916,-486.8383060961299,0.0
-3142.890272964716,-2186.9930028994117,8613.967711616246,-1943.9994789483753,249.63419376332118,-395.51396921881854,-1447.985145469041,-803.0332065145562,0.0
-3425.148257806226,-2486.7422997747103,7836.190136938503,-2303.352043537597,-52.124693369462875,-797.3464867793084,-1755.7662998144428,-1136.3444931704214,0.0
-3628.991833358106,-2813.0878378818825,7159.706229773886,-2587.6935724156087,-518.1292408604451,-1091.238729955608,-2090.052271039171,-1495.2293389614642,0.0
-3806.5162566153735,-3107.957034213943,6581.239414435746,-2824.737947362786,-1014.4008318603095,-1321.27360245605,-2420.80388087668,-1848.7532272105964,0.0
-4042.659604766507,-3352.852140898738,5967.957768163388,-3103.8314737304313,-1361.8564368237317,-1615.9333380550022,-2719.4844575977622,-2169.916321669458,0.0
-4337.989448045335,-3592.9893458622214,5240.728883418582,-3453.2486141783384,-1581.2620267708678,-2010.988174698563,-2998.6775141677795,-2473.269190223132,0.0
-4605.843236172816,-3874.945001014529,4484.732844325649,-3799.5919743217423,-1864.9342248030334,-2399.051377631955,-3293.7581924032684,-2794.2849045043195,0.0
-4790.376737338833,-4181.107253140018,3834.078531589031,-4068.024476725704,-2310.978760644871,-2676.7964289966912,-3612.7927204621064,-3139.1626565144697,0.0
-4943.398225457339,-4453.528943126762,3286.8587099091455,-4285.691387208254,-2787.587715506848,-2887.3396969665773,-3925.1918031070727,-3475.600145810191,0.0
-5153.882724700008,-4675.740525868144,2707.2928503687863,-4544.456073382606,-3117.7313001319085,-3161.6449508081546,-4205.00984331037,-3777.9198697288875,0.0
-5427.799770980289,-4895.70509753971,2011.566194583565,-4875.722202308606,-3321.8112185209184,-3538.688044195812,-4467.510193939525,-4062.9713870301575,0.0
-5679.820915167442,-5160.695685126799,1283.2782483346723,-5206.220985904847,-3590.0291981641303,-3912.3180708710397,-4748.016803580702,-4366.783416780323,0.0
-5851.105878612302,-5451.354339946067,658.1230098392215,-5459.158930713084,-4019.4943734989733,-4177.948333651907,-5053.243775986096,-4694.713626094861,0.0
-5991.823007247771,-5709.242176519201,134.5280764611427,-5661.9442496559295,-4480.235003630691,-4377.32292720779,-5352.856135196018,-5015.0682120467945,0.0
-6191.237834991596,-5918.696379258464,-423.4377102715752,-5907.269614367751,-4795.9988835876775,-4640.305591732184,-5620.37721871143,-5302.715422803625,0.0
-6454.077442233401,-6127.01444522885,-1097.5638535373057,-6224.66950921159,-4984.511115344364,-5004.344953428216,-5868.198029957959,-5572.642352105029,0.0
-6694.4383134707,-6381.096537764549,-1803.3833288674878,-6539.874938440616,-5235.232941557965,-5363.362107076192,-6131.358043094546,-5860.168602352059,0.0
-6855.35191026716,-6662.32626084369,-2406.5154018911962,-6777.462116988928,-5648.165893963474,-5613.775240742822,-6419.633033130199,-6172.756471525419,0.0
-6987.636978475548,-6910.730212713388,-2908.004771582802,-6964.70511890443,-6093.916486786636,-5796.273940721725,-6703.677196303438,-6479.493940738998,0.0
-7178.999311485522,-7107.052256572066,-3441.9569745113085,-7193.227413636195,-6393.226918711189,-6039.3674973145735,-6955.219567802617,-6753.38484970717,0.0
-7432.225082093582,-7296.539641665552,-4089.8689579927495,-7493.065229186577,-6561.428839099703,-6381.129435549267,-7184.904288810433,-7007.288565761108,0.0
-7659.182946498211,-7527.320636252968,-4767.427781850173,-7790.27676041809,-6788.217739263683,-6716.805811796667,-7426.867537422471,-7275.323395451169,0.0
-7802.183398282058,-7785.180270469416,-5340.469483010971,-8009.441899377743,-7176.312848305699,-6944.9256587840555,-7692.088508678019,-7565.529640554567,0.0
-7915.592579872627,-8015.527025574032,-5812.3618184974885,-8180.172058727106,-7600.308843955758,-7109.79997905153,-7955.391067711647,-7850.2033561252665,0.0
-8091.874615446053,-8201.064248614568,-6320.076726478041,-8396.506470152757,-7882.819131713142,-7341.674812513665,-8191.661424647195,-8105.529547031708,0.0
-8333.597307821557,-8382.959893446196,-6943.9004113330475,-8685.81155398852,-8035.974220126626,-7674.940354333247,-8408.988563360785,-8342.95250213677,0.0
-8548.572942102486,-8603.2514724319,-7595.477756210448,-8968.902723562298,-8244.778403822565,-7999.415662864422,-8636.62876097535,-8592.69296239169,0.0
-8677.826428202432,-8846.16531338943,-8139.74902167601,-9169.572702165999,-8612.326293468115,-8212.45002818937,-8885.208859727578,-8863.06399654243,0.0
-8776.858808117122,-9059.044018139115,-8581.431137117544,-9319.56861324296,-9016.138089720807,-8359.586528096464,-9131.487714887331,-9128.72332481687,0.0
-8937.541478473762,-9225.81581167285,-9056.952005558474,-9513.187653975552,-9278.290277137843,-8571.299197956705,-9349.623155156527,-9364.673528542236,0.0
-9163.503197259148,-9391.003887457635,-9648.27358104347,-9780.458388663426,-9411.646871437199,-8885.179541103673,-9549.106220249778,-9582.767659752453,0.0
-9365.852373113266,-9601.138206184836,-10271.652626461084,-10047.792299556388,-9606.092161337107,-9195.813744362193,-9763.881434485816,-9817.881109810185,0.0
-9483.00540815322,-9836.780016471826,-10790.08648872787,-10237.306592774828,-9964.045403547503,-9397.13016539098,-10002.688436030272,-10077.50614283864,0.0
-9565.001187117807,-10037.023706333284,-11201.99642390149,-10373.87331407161,-10356.536488272675,-9527.434334402775,-10235.71148763825,-10330.655426641302,0.0
-9706.476478665709,-10185.400070432439,-11645.13926991155,-10552.290654406082,-10604.567259984635,-9719.030498920532,-10437.9512558881,-10553.11488565426,0.0
-9917.062790886133,-10330.550011718437,-12206.052191935305,-10806.585769667587,-10722.663123913317,-10015.412882629957,-10623.163068508919,-10759.552099586554,0.0
-10106.944014182032,-10519.55910473206,-12798.666174069793,-11060.422824354793,-10897.3746609777,-10310.44641163325,-10823.014117561632,-10980.226890479746,0.0
-10211.084534943857,-10733.782999362596,-13282.358543795026,-11231.730586730097,-11229.603538388996,-10494.826037835792,-11042.687890911817,-11217.870384510681,0.0
-10279.080289224881,-10914.835746531608,-13657.136701075824,-11346.271009204094,-11594.740084610747,-10606.358318286642,-11253.648331055774,-11443.874717082585,0.0
-10405.282890187524,-11045.844170555454,-14063.411176762245,-11500.921799999,-11816.289273258855,-10777.075549631378,-11432.678946783224,-11638.129508243148,0.0
-10599.883682509679,-11174.527729701633,-14590.240504214877,-11732.10167772238,-11908.854425586418,-11051.317257641142,-11594.596502373011,-11818.59358401557,0.0
-10776.062974392975,-11349.39083365108,-15154.70609435684,-11967.214917669804,-12061.244933316284,-11326.010915722836,-11773.467662529347,-12019.091815515101,0.0
-10868.307316976785,-11550.461800560981,-15614.051969148215,-12123.479184896596,-12374.703724269431,-11491.66210913911,-11974.211730722747,-12241.169397085665,0.0
-10922.122957250318,-11715.95880579364,-15961.759598167922,-12222.14038063885,-12721.779614435936,-11583.348276771394,-12165.475804099702,-12450.890493819104,0.0
-11032.752355479312,-11830.621984906813,-16337.542725214429,-12360.820495233736,-12926.363849952271,-11735.452106586697,-12325.612871248166,-12627.636181972446,0.0
-11214.221485067115,-11944.55842480483,-16834.14455497185,-12579.070682622372,-13003.8186329591,-11995.796986165804,-12472.215472030965,-12791.718108997098,0.0
-11378.33919926854,-12103.081767736878,-17367.953301183294,-12801.395695524941,-13138.5901031153,-12257.84685034656,-12636.352009504926,-12974.967075533426,0.0
-11457.622732424614,-12285.698009593978,-17795.20677052102,-12942.036607987036,-13430.592348287104,-12408.632418716286,-12820.81268163486,-13178.454371879145,0.0
-11499.712822532727,-12436.207863072925,-18112.638067165677,-13024.685784815996,-13758.004711978832,-12485.753661574248,-12997.46080773537,-13372.630067430677,0.0
-11599.16397599251,-12539.776382686045,-18460.083966678776,-13147.237258890245,-13946.389945458193,-12623.925284513472,-13144.578338664774,-13536.35117251174,0.0
-11766.006822063704,-12641.033527425012,-18926.13697998453,-13346.315838009943,-14006.660599309474,-12867.439460119245,-13275.732801662783,-13684.23378191782,0.0
-11913.399652155122,-12784.961803430087,-19427.606752804044,-13548.890073774475,-14123.066807084466,-13111.089491262079,-13423.25531927147,-13848.382977622337,0.0
-11979.486294648574,-12955.052018972594,-19825.469109323447,-13675.351171886477,-14399.986915448015,-13246.869747048975,-13595.02529276829,-14035.519104417024,0.0
-12012.398097317262,-13094.204548323152,-20116.513719765233,-13749.213130815919,-14715.224359578557,-13311.838313494298,-13762.23908993704,-14216.808983631538,0.0
-12100.751088376812,-13182.045640577318,-20434.825978614856,-13861.199905211955,-14887.909665595747,-13434.921867201318,-13896.437994712545,-14365.580573805608,0.0
-12250.140076127875,-13260.461110331855,-20865.4908887815,-14042.669131449384,-14924.744673708228,-13657.413727935867,-14007.043817419873,-14492.391635907616,0.0
-12376.134703745762,-13378.155852511898,-21328.38322164526,-14222.46138708145,-15013.362201657837,-13876.84903860956,-14129.575532602788,-14631.643861312641,0.0
-12422.813863032796,-13525.361197145552,-21689.074794272343,-14326.057035727703,-15265.101282282541,-13989.429457174585,-14277.950541870634,-14795.497842704495,0.0
-12441.86667290218,-13648.721944752437,-21945.349342213853,-14379.663897778719,-15560.881869547213,-14034.15063677176,-14426.074413073946,-14957.637356457284,0.0
-12522.086718857925,-13727.109585493034,-22231.039747041003,-14474.451346607259,-15718.00077768395,-14140.301571589545,-14544.681170403965,-15090.52923926642,0.0
-12667.423720809951,-13799.731803052548,-22632.608487108286,-14642.082840538686,-15740.471776921577,-14349.134440590251,-14641.642012892942,-15203.914564723145,0.0
-12789.991461996806,-13912.077441886735,-23070.244742075003,-14810.446680658497,-15814.618902252312,-14556.911689068655,-14751.048921633634,-15331.343160311531,0.0
-12828.662043321247,-14049.678579374722,-23405.388400149954,-14901.139392046558,-16050.140243868998,-14655.954460475745,-14884.455551834662,-15481.5280796668,0.0
-12830.547288988202,-14153.65442212115,-23629.002134323906,-14935.41329892517,-16324.152227139122,-14679.826931245789,-15012.084272085209,-15623.256110592805,0.0
-12885.434383626281,-14202.639643887458,-23872.797041699843,-15004.146074753045,-16452.439609043184,-14757.19231887884,-15104.166076479802,-15728.6753365391,0.0
-13005.751458177589,-14245.09439141729,-24230.63244916061,-15146.443274112433,-16445.18210432529,-14937.73050643615,-15175.57597007703,-15814.726145136381,0.0
-13111.398842559314,-14336.77380618781,-24632.004625455847,-15297.663228175214,-16496.29509088695,-15126.658173644291,-15267.926563827868,-15922.114945940597,0.0
-13139.823390022624,-14464.123366732274,-24938.97218374171,-15377.756457449626,-16715.572020160034,-15215.652423872521,-15391.440534359792,-16058.54298339919,0.0
-13132.82701361067,-14563.867924031027,-25137.604493906823,-15402.114232321957,-16976.88510896814,-15232.96802821595,-15510.831041223237,-16188.108021932858,0.0
-13179.592309497619,-14612.313899250948,-25357.859153982114,-15460.614322810954,-17095.566055459632,-15305.769972320657,-15594.933189636913,-16281.982303940715,0.0
-13293.758022242917,-14654.72249809021,-25693.439305477354,-15593.531748559937,-17080.135893724408,-15482.877125133862,-15658.359627165664,-16357.173933062924,0.0
-13393.22595569081,-14741.064790541534,-26070.84622750434,-15734.298713652808,-17120.08634780267,-15665.396018010963,-15739.881341927648,-16451.95906850868,0.0
-13413.1450009199,-14855.370436403091,-26349.268617917034,-15800.90629563326,-17324.049873755255,-15742.250879627845,-15848.707652372948,-16572.9898818446,0.0
-13394.630446592784,-14935.94644834426,-26514.61282438728,-15808.796706289133,-17567.695903981803,-15742.241212191566,-15951.375588392018,-16685.656134751203,0.0
-13424.83948207384,-14959.583468748551,-26696.649231997926,-15846.575436942943,-17665.136226583803,-15792.568308969685,-16016.139834190657,-16760.06336549806,0.0
-13516.64461263412,-14973.181204592422,-26990.06835657166,-15953.966004559517,-17623.437639805506,-15943.16148692234,-16056.23245272814,-16811.866864050946,0.0
-13593.417876327883,-15033.650644292142,-27326.975772954414,-16069.410440587044,-17636.69836606834,-16100.773656447122,-16114.17498469785,-16883.385244892008,0.0
-13596.613899085718,-15130.8226286966,-27571.295438506608,-16116.588517989265,-17819.511980709904,-16159.091881819495,-16204.392725773121,-16986.23873746414,0.0
-13567.310221553556,-15201.23256349569,-27706.788295609433,-16110.411324626028,-18047.50913313703,-16145.524252383297,-16293.325407198094,-17084.941319630037,0.0
-13590.008968701592,-15217.29479458624,-27859.301488338173,-16136.273678718131,-18131.559515143883,-16184.056012141704,-16346.26709238995,-17146.306983901966,0.0
-13676.391806865886,-15223.427882873872,-28122.94967769237,-16232.811398067532,-18076.273985564185,-16322.916939100607,-16374.605679820468,-17184.541758755237,0.0
-13746.6907526059,-15273.408295050125,-28429.643871857454,-16336.897537859737,-18072.793182613885,-16465.96725406735,-16418.63909056672,-17240.08748939585,0.0
-13738.068230004448,-15354.873376343185,-28642.397783261313,-16369.697290751643,-18234.440640844994,-16504.26424819095,-16491.17865821141,-17322.937816030415,0.0
-13692.60765285297,-15407.846061835033,-28746.076403855324,-16347.275436466518,-18440.781749085694,-16467.630735573362,-16561.16326835654,-17400.32657919099,0.0
-13700.255307272799,-15409.994856294876,-28868.564346951447,-16358.981809735145,-18507.134580384507,-16485.338831072804,-16597.711616807264,-17443.64164633818,0.0
-13775.729063431565,-15405.559266184939,-29104.487625339694,-16444.786178607013,-18437.084148901587,-16607.815174328505,-16612.413730739845,-17467.969954562832,0.0
-13837.786070597773,-15444.02752694003,-29385.008924352085,-16539.60229059695,-18417.904192276845,-16736.803637847806,-16643.092443931466,-17511.190821864107,0.0
-13820.572092073247,-15510.652944361487,-29571.36519318945,-16562.17515328667,-18561.689211141278,-16760.25655247216,-16700.801048994865,-17580.860166420494,0.0
-13764.942607557194,-15547.182005036171,-29646.484776599238,-16527.47786242165,-18749.83223573066,-16707.9981970195,-16754.979671445144,-17644.121892882733,0.0
-13761.050657223288,-15533.912055459781,-29737.529405504374,-16524.517095037212,-18798.761467706147,-16711.616674471057,-16776.06199390112,-17673.053274870406,0.0
-13822.263718913151,-15514.473405499364,-29938.961675960585,-16592.179865337002,-18709.682671486673,-16820.80449625178,-16774.65636825445,-17680.760839282084,0.0
-13866.811387762024,-15537.109746749733,-30183.777810664164,-16666.060612305253,-18668.12472586085,-16934.841918399987,-16787.552969697426,-17703.758982116116,0.0
-13833.093903015784,-15589.930352469557,-30338.321176243884,-16669.482998678614,-18790.748601091258,-16943.311170752248,-16829.040696652533,-17753.973947031915,0.0
-13766.23203501679,-15617.37918324233,-30387.779562446744,-16620.647156774892,-18964.67571897139,-16878.729269336884,-16871.788059454626,-17803.07966485904,0.0
-13755.193585909303,-15596.671608702365,-30454.45697686311,-16606.573735595233,-19004.075136785563,-16871.230208036715,-16883.993076894552,-17821.187314624418,0.0
-13809.72923761717,-15566.463920346565,-30627.415811956052,-16662.94944986674,-18902.901372241755,-16968.15211273306,-16872.238831782495,-17817.212332259078,0.0
-13846.271428065495,-15574.253979701807,-30840.42493228567,-16724.634531012434,-18844.322400923043,-17069.100858441612,-16872.535836882238,-17826.88440975884,0.0
-13803.342860257066,-15611.506094033677,-30964.207905564384,-16715.64281949829,-18948.377392243765,-17064.812582845752,-16900.65295550025,-17863.29215882069,0.0
-13726.597543417969,-15626.230258901873,-30986.17058322308,-16654.205250609994,-19105.223980150524,-16988.009696608842,-16930.105905553268,-17898.09773832145,0.0
-13705.922647259393,-15597.295046830404,-31028.33657008162,-16627.550593673895,-19130.812548616217,-16969.258914487444,-16929.625327489437,-17901.341768792132,0.0
-13753.800646380734,-15563.530328339188,-31180.021805213528,-16674.120103353194,-19021.1341994529,-17057.504930987154,-16907.85401958025,-17884.406678676274,0.0
-13787.604708981275,-15569.599965930427,-31373.226118124276,-16730.087948313976,-18957.514644087845,-17151.304233609902,-16901.078453367547,-17884.37563332507,0.0
-13739.432557975528,-15599.712304035145,-31471.30010393826,-16713.484972604754,-19052.56127314184,-17134.60848103151,-16919.335118533785,-17909.598108042366,0.0
-13647.929100061998,-15596.986510690196,-31456.87591221789,-16636.09620389747,-19191.839579292697,-17035.57470157145,-16931.19035000466,-17927.33236463113,0.0
-13606.422046198159,-15545.13626599788,-31458.926298212325,-16588.289284184735,-19195.251585339585,-16990.85232532205,-16909.72256168643,-17911.675282553268,0.0
-13636.463952021872,-15491.817376059997,-31577.35645724081,-16616.06123098116,-19064.67761488865,-17058.907797787608,-16871.07773662311,-17880.251242656996,0.0
-13658.522532211704,-15484.28874586298,-31745.478478081393,-16657.70488504707,-18982.667893919035,-17139.869998164544,-16852.32898115854,-17869.467127123542,0.0
-13601.793383155033,-15503.132979041358,-31819.987517157926,-16628.838836365238,-19060.11923022713,-17112.337204633623,-16859.23800365636,-17882.55422883448,0.0
-13502.09704354769,-15487.811908596515,-31778.09252228649,-16539.13813365699,-19180.983694705046,-16999.564374854497,-16857.177531144967,-17883.60182226329,0.0
-13451.665106915607,-15421.598469396331,-31748.781418989718,-16478.366400299074,-19164.923737594196,-16937.318923594954,-16819.0068675336,-17847.4363841212,0.0
-13471.809037649715,-15354.09424103525,-31835.38407814526,-16492.952170953205,-19015.319983298057,-16986.508196177056,-16762.745446979243,-17795.00091753794,0.0
-13483.43337823993,-15334.507086682544,-31973.95246558558,-16521.422971554915,-18916.282291328036,-17050.223281567705,-16727.958396819016,-17766.198717112253,0.0
-13416.598268636972,-15344.11013556873,-32021.378083280626,-16478.978883315845,-18979.225853308853,-17008.662655028555,-16722.399589406104,-17766.310633098077,0.0
-13307.532186743681,-15321.49157787241,-31953.523013033497,-16375.414015289336,-19087.71021902533,-16885.393313071087,-16711.6245487361,-17758.975397363858,0.0
-13248.108873554153,-15247.18525114289,-31897.535980526714,-16301.046817663697,-19059.123086130647,-16815.02310379255,-16665.582465104395,-17715.298655940685,0.0
-13259.86539332972,-15168.410807898195,-31955.765960839453,-16302.703014651976,-18893.98621867612,-16856.415306482653,-16598.68204579405,-17651.75354968336,0.0
-13265.910706284372,-15136.58994537467,-32066.742837110567,-16320.800282000375,-18777.741743975817,-16912.5220616181,-16551.180645752247,-17608.175552722416,0.0
-13199.048452561061,-15139.064467663015,-32092.82773653754,-16273.934669028702,-18827.624598485523,-16865.768966531195,-16535.85710959337,-17595.04719374642,0.0
-13094.487542364179,-15117.167514162018,-32012.066440894145,-16171.82125408725,-18930.693198028737,-16740.3205056034,-16521.22296373145,-17580.243248435312,0.0
-13037.657961882038,-15046.472412023999,-31945.946436770748,-16098.433132849472,-18900.80147807753,-16667.560157138698,-16473.829086429985,-17532.721106464713,0.0
-13043.096843951123,-14965.554552276255,-31987.783702819823,-16093.305116226817,-18730.68839276056,-16701.799316046334,-16401.37781679553,-17462.857707529107,0.0
-13032.18672812945,-14920.926870172068,-32071.590492538136,-16094.913724751206,-18600.397360391493,-16743.29137496876,-16340.043855500706,-17406.409030747793,0.0
-12942.692541859498,-14903.076729911987,-32062.76009265483,-16026.072511755758,-18629.698825613505,-16676.301522583362,-16304.943502772476,-17375.40899723212,0.0
-12818.854329075159,-14862.037004440921,-31947.248609790604,-15904.067962130515,-18714.57545411665,-16531.490419603393,-16272.132748074664,-17344.20771192484,0.0
-12752.453913974685,-14779.234260804196,-31852.85920338287,-15818.26937886537,-18674.520638099748,-16445.22510690791,-16213.687347864248,-17286.72290580642,0.0
-12755.67276676748,-14690.81393404186,-31872.465961729027,-15806.563288854793,-18498.610924254084,-16469.861730752906,-16135.129403759947,-17210.91986320408,0.0
-12742.403328884488,-14637.1717759322,-31935.324412439848,-15801.79800339163,-18360.24292733764,-16500.856655810043,-16067.038155518941,-17146.786264077917,0.0
-12646.63017635886,-14606.927552526464,-31904.078269074173,-15724.460090688242,-18377.89464329805,-16421.56044961717,-16023.009985846486,-17104.794863585612,0.0
-12514.473152171664,-14553.297542429453,-31765.385544675773,-15593.646727613894,-18450.29974767564,-16265.089943603776,-15981.124866605884,-17061.34438081711,0.0
-12441.05784087291,-14461.322465415802,-31648.80139388423,-15500.667801462325,-18398.524352490473,-16169.771288462523,-15914.543143460702,-16991.662877494524,0.0
-12440.636623909637,-14368.655021859582,-31648.950672503484,-15484.182574179235,-18211.683856792166,-16188.731542559868,-15828.78896792294,-16904.319964652455,0.0
-12426.439709977842,-14314.609531902635,-31695.33645481257,-15476.21918587154,-18063.20596124662,-16216.784679049475,-15754.059083777604,-16829.750080566857,0.0
-12328.372873982413,-14283.491107397935,-31647.229983924826,-15393.600691239519,-18070.792418038796,-16133.711770200676,-15701.844735493778,-16777.242278084963,0.0
-12188.249644083618,-14222.889765732514,-31486.615789542357,-15251.337768896812,-18130.966391762024,-15967.78637204757,-15647.536239435982,-16721.217954609598,0.0
-12100.571048047745,-14115.382475465593,-31341.62516593446,-15140.37410931695,-18062.518894526802,-15855.344241142953,-15563.548552765686,-16636.130712670623,0.0
-12083.410373524403,-14002.193216024318,-31310.367900446603,-15103.774192219544,-17855.207060713976,-15852.538870417055,-15457.607294995712,-16531.93984188288,0.0
-12056.677006313133,-13930.813486230965,-31329.05296030636,-15080.526573601093,-17688.03431635191,-15861.24158571888,-15365.318709710915,-16443.449389046513,0.0
-11954.151992129517,-13891.144725329801,-31260.373208547826,-14990.827485550446,-17683.864810020823,-15766.484781749943,-15302.630508163653,-16383.494869481996,0.0
-11814.044640021477,-13828.25908309185,-31082.096009494933,-14845.807177675324,-17737.076875669387,-15594.801729255001,-15243.21613287729,-16323.81926745271,0.0
-11725.657868343817,-13719.887943252204,-30918.078041190274,-14731.919359687747,-17661.969204773613,-15478.854097804438,-15155.855702543142,-16234.398416970575,0.0
-11706.509414287797,-13606.171632806876,-30868.12730257131,-14692.182952727184,-17447.897053968256,-15474.603794282917,-15047.825779639614,-16124.959503149026,0.0
-11676.000818679528,-13533.331381609923,-30869.307515906657,-14664.665976334865,-17273.261649932407,-15482.258585420523,-14953.294745068519,-16030.340857111969,0.0
-11565.523166661307,-13488.859530773163,-30781.634205667324,-14566.637417446365,-17259.222512458764,-15382.28553859633,-14885.01491271101,-15961.616477887172,0.0
-11414.940348874277,-13419.22651409064,-30583.135404859488,-14410.242779788457,-17302.51565937242,-15200.922556559937,-14817.373302951424,-15891.562904409197,0.0
-11318.404435581058,-13305.401167467418,-30400.55218065366,-14286.045836795429,-17220.584308704954,-15075.299162052055,-14722.519473887316,-15793.040600874805,0.0
-11295.280349322798,-13187.941217077549,-30334.504312408037,-14239.445166326797,-17001.570963715392,-15064.658886041896,-14609.009992151277,-15676.633147719685,0.0
-11263.584227666932,-13111.717137207654,-30321.43173638059,-14208.732840310155,-16821.58565820454,-15069.218198558014,-14510.735038427538,-15576.792821746401,0.0
-11152.208078242735,-13062.111086340828,-30219.6634049101,-14109.112946591551,-16800.83576318512,-14966.133663346054,-14439.02979332739,-15503.09808022425,0.0
-10998.364015246385,-12983.472088179089,-30004.391856632923,-13949.02111679391,-16835.162080506107,-14776.931077615014,-14365.598175762758,-15425.784812716825,0.0
-10896.107450055551,-12858.239447354197,-29802.646270411606,-13818.209564875828,-16742.66058105336,-14638.498834619833,-14262.416282422704,-15318.326042688937,0.0
-10867.415251526738,-12731.112077727548,-29719.122898701266,-13765.01178084177,-16513.843388109664,-14615.09112566158,-14141.072037170972,-15195.110485224686,0.0
-10831.258729439829,-12648.377274512632,-29691.986270139063,-13729.124169506118,-16325.75190740637,-14610.277002347384,-14036.66157425501,-15091.3907563709,0.0
-10715.348393346623,-12594.439578972178,-29577.27044043587,-13624.335525988889,-16298.559675954275,-14500.505843502367,-13959.386448613654,-15014.208860535759,0.0
-10557.249927640825,-12513.525971143385,-29348.02087286568,-13458.57376256855,-16328.790644637793,-14306.441404141673,-13881.140390020668,-14932.762022610092,0.0
-10451.55068650495,-12386.308648264167,-29129.25955384192,-13321.098330815868,-16232.468529089789,-14163.649165304383,-13773.203251018875,-14819.24307235093,0.0
-10417.940291645235,-12252.745934118991,-29022.732065372165,-13257.358837006821,-15994.175590022633,-14132.609630086215,-13642.998640061216,-14683.844592402947,0.0
-10374.063696634805,-12158.107015381265,-28967.94877153505,-13206.555493877839,-15788.949691651658,-14115.43933318056,-13524.1094686385,-14560.998885016525,0.0
-10250.14225972474,-12092.241163607061,-28827.998068767498,-13087.428842584932,-15742.897260880822,-13992.611965594515,-13431.525243938622,-14463.949217838577,0.0
-10085.865654935296,-12003.772653527516,-28580.41516693223,-12912.243036867172,-15758.817683256731,-13788.669585130765,-13341.601383039737,-14367.829340626211,0.0
-9976.239581488091,-11873.09799238774,-28349.117990400464,-12770.97205731577,-15654.286585667747,-13639.856466016412,-13226.287740113703,-14246.321457160248,0.0
-9942.975551666546,-11739.860326119402,-28235.10164365244,-12709.869560704448,-15414.190247577018,-13607.673008997706,-13093.826396563849,-14110.386538168385,0.0
-9904.690955312732,-11649.250515208647,-28177.279411175856,-12667.394466631045,-15212.903624260802,-13594.496701763352,-12978.035735394706,-13993.815340139297,0.0
-9786.919549199987,-11587.311091228512,-28033.264566252798,-12555.886882340965,-15171.661101031043,-13476.151398328062,-12889.876267649945,-13904.27194952538,0.0
-9623.04043361382,-11497.367149103151,-27773.93719605038,-12380.367893905866,-15186.953434533612,-13271.004117979639,-12800.606457507878,-13810.379455080427,0.0
-9505.865788774518,-11357.99700241993,-27522.000013818608,-12229.356436369126,-15073.674170677663,-13113.178623652284,-12680.364364691339,-13683.905108924278,0.0
-9458.97645057512,-11210.952644639854,-27382.08314235623,-12152.767086419424,-14818.145516611265,-13066.104789557781,-12538.36056920739,-13537.902219667543,0.0
-9405.81635481568,-11105.913306276834,-27298.671535423444,-12094.764077644493,-14599.347331377678,-13036.416308784534,-12411.190993868386,-13409.935520433963,0.0
-9277.803033253973,-11033.57442401802,-27134.634334920123,-11972.924943907594,-14544.526660191525,-12904.371390878614,-12313.033366789896,-13311.046891925245,0.0
-9111.213320708592,-10939.054161206075,-26862.905800528544,-11794.31521636491,-14553.20048132244,-12690.130707382452,-12216.448524178895,-13210.857987394618,0.0
-8997.905387590981,-10799.915387741596,-26605.016627053545,-11646.077289391818,-14438.888080791572,-12527.739305328583,-12091.542897412846,-13080.582592636549,0.0
-8958.716719989041,-10656.208921734717,-26463.128584477425,-11575.131190288972,-14185.27472731664,-12480.72549070478,-11947.607368814239,-12932.527986386614,0.0
-8913.156646297326,-10555.490255778157,-26378.094383624913,-11522.217206113406,-13968.83921845895,-12454.64623594803,-11820.827954607503,-12803.066611484217,0.0
-8788.650932286624,-10486.243191853839,-26209.19232046893,-11402.337601747806,-13914.538224974847,-12326.712914361855,-11724.755613607795,-12702.606531129573,0.0
-8619.536492581306,-10392.00646259052,-25927.829295903754,-11221.121455582095,-13921.065694855015,-12113.842843803624,-11631.082543322958,-12600.892126394001,0.0
-8497.858012205443,-10248.528948754132,-25654.968016310508,-11064.120134915593,-13801.390979945645,-11947.682630501657,-11506.88259684629,-12467.276500708544,0.0
-8446.264041880495,-10094.753907346108,-25492.818044714146,-10977.60003581884,-13537.150097378186,-11891.299183557461,-11357.730529327451,-12310.573133145976,0.0
-8387.424973060464,-9980.70609017088,-25385.054653841747,-10905.103106501601,-13304.80327722152,-11852.895419536997,-11219.881051223558,-12166.622445545343,0.0
-8252.350709706276,-9900.243713639078,-25195.72543920415,-10767.3915690809,-13235.032085872643,-11714.119474280182,-11111.362387931456,-12050.26444176718,0.0
-8079.190994576825,-9801.816810398197,-24900.15409025155,-10576.534307730319,-13233.99884752649,-11495.962898308457,-11009.491861791848,-11937.862058364266,0.0
-7962.620363232239,-9662.996766911707,-24621.354795996285,-10422.345001557793,-13116.85310895384,-11332.053148449666,-10884.569453676337,-11802.978893760248,0.0
-7923.123420979046,-9519.766020259736,-24460.6723624493,-10349.586865390098,-12860.954273847272,-11283.493300124961,-10740.884836816209,-11653.443121074806,0.0
-7876.636306441465,-9415.943906968521,-24357.09549053245,-10294.200213146078,-12636.603655678326,-11253.143410494806,-10609.946896427076,-11520.207459480856,0.0
-7747.980421426421,-9340.298372345724,-24168.14614228606,-10167.974236107219,-12570.306294979402,-11117.372527166326,-10504.84293882637,-11412.33691779825,0.0
-7573.115862826426,-9239.355734416653,-23864.739372769043,-9977.99522689678,-12566.480645385414,-10894.883819542638,-10400.400545327464,-11301.724300425041,0.0
-7448.340020144723,-9091.491779136137,-23570.17042049661,-9814.936936693593,-12440.44438407032,-10720.672031128872,-10267.634880730304,-11160.721689167756,0.0
-7398.238807105765,-8935.920114774715,-23390.289621302356,-9728.712192343259,-12171.549052526272,-10659.542268865498,-10113.36076758326,-10999.809376513103,0.0
-7343.34810261378,-8821.105715366228,-23270.22099393959,-9661.94819508466,-11933.97073050727,-10618.356922479627,-9971.959130471003,-10854.733581857594,0.0
-7210.750467702601,-8739.069971178536,-23071.306834210125,-9531.116613086866,-11858.732264558255,-10475.8813290256,-9859.317815018381,-10738.851786813537,0.0
-7035.264644899961,-8636.318095767627,-22763.447797766203,-9343.101380094684,-11852.48138772887,-10250.730564779538,-9751.930701724295,-10625.75797826489,0.0
-6911.133576196018,-8489.351135420326,-22466.420616993895,-9184.870274778039,-11729.046299572947,-10076.57479917509,-9620.416357385193,-10486.575330064617,0.0
-6861.799684753565,-8335.145000781517,-22283.165186077164,-9102.476691437787,-11463.46155714316,-10016.469978652029,-9469.290292263386,-10328.507259615284,0.0
-6806.808390263686,-8220.26369134534,-22156.921609139143,-9035.81540150105,-11225.673286299705,-9975.040861751448,-9330.046456436796,-10184.130424098186,0.0
-6673.446442836306,-8137.7426531423735,-21949.64126132212,-8901.316679888689,-11147.277975630623,-9830.965556324105,-9218.153516569424,-10067.205335403864,0.0
-6498.661584016393,-8037.295605105907,-21634.389859692972,-8708.979409817022,-11139.13661937432,-9605.636621494814,-9112.22782087218,-9954.31262562918,0.0
-6376.753061670233,-7894.633643693099,-21331.57609938587,-8547.40720956697,-11014.86293420803,-9433.005109709673,-8982.394972410995,-9816.018809957062,0.0
-6328.599088394064,-7742.176476727152,-21141.612133272127,-8461.382693287394,-10745.227336002594,-9373.130273548684,-8829.925996978805,-9655.85288137222,0.0
-6274.079321516034,-7625.888264076503,-21008.156354281906,-8391.892664950436,-10501.130575488667,-9330.472053846592,-8686.803555795494,-9506.651882114937,0.0
-6142.276338299648,-7541.569011904988,-20795.18206310962,-8257.50826407877,-10419.047013682542,-9185.27845238802,-8571.636966267955,-9385.182445738086,0.0
-5967.757290449647,-7438.533958043126,-20473.52488182937,-8065.770056601222,-10409.94818787366,-8957.290722072505,-8462.657341908789,-9267.928855336739,0.0
-5842.400182421383,-7291.415900894804,-20161.369341101097,-7902.617796847107,-10284.924844708286,-8779.81356711674,-8328.93860765285,-9125.136107279795,0.0
-5789.64299672288,-7134.9572106619635,-19962.013327032055,-7814.972877254573,-10014.798090895236,-8716.405514008351,-8174.093354061863,-8962.781122444923,0.0
-5732.564519211798,-7016.846147246429,-19822.238915799564,-7745.758321271088,-9770.590943528277,-8673.022993280129,-8031.5695186590565,-8814.483038424685,0.0
-5600.846745321364,-6931.585381873698,-19605.704756707146,-7612.1640224357225,-9687.772845016947,-8527.003124472556,-7918.078649026036,-8694.870382574794,0.0
-5429.1079087027265,-6827.47098864877,-19282.260200988483,-7420.561060598035,-9677.402320530351,-8295.825164464364,-7809.899777002238,-8578.890769113368,0.0
-5309.183746895786,-6680.197626298945,-18969.879579763936,-7257.567678781237,-9551.38733089695,-8114.182532342202,-7675.869949998774,-8436.600473236507,0.0
-5262.363080575471,-6524.960002539128,-18770.225028624292,-7170.198828877214,-9279.626636625082,-8047.875059733394,-7519.220081409718,-8273.186549180622,0.0
-5207.507823965633,-6407.379344333519,-18626.614766720188,-7099.575295263997,-9030.61972325956,-8002.579639565192,-7372.138301853568,-8120.879103234039,0.0
-5073.477103498349,-6322.195674936688,-18402.920617909236,-6963.452721367681,-8941.644172090102,-7855.97605433632,-7253.658320868983,-7996.5912110786985,0.0
-4900.187166745659,-6222.5346803207485,-18074.78010649953,-6772.876033227903,-8931.035847877929,-7628.9331229921145,-7146.54071750063,-7881.2733982959335,0.0
-4783.689974991659,-6085.3588763122825,-17763.32551363252,-6615.849315111514,-8813.04854752657,-7456.383267503234,-7021.068031130006,-7746.104324989694,0.0
-4744.300072110442,-5940.748213555698,-17567.743943514666,-6535.361213057529,-8551.561594974715,-7399.734969394129,-6874.596807522308,-7590.776939525709,0.0
-4698.6768468080845,-5830.4850697837155,-17428.842447140752,-6469.9616875144,-8309.711206684826,-7362.0796546551965,-6734.742165548577,-7443.468041279237,0.0
-4571.906513380383,-5747.961790261479,-17207.233862782905,-6336.26383028144,-8222.654656516746,-7219.6001250747595,-6618.906854169268,-7320.0402667572325,0.0
-4397.602101259403,-5643.618071102882,-16872.962369535995,-6142.155869869651,-8206.736316933624,-6989.315937524638,-6507.575629288786,-7200.048096715387,0.0
-4270.416629861991,-5494.331498053286,-16546.86336523216,-5975.618782084625,-8077.865769089496,-6805.648360784173,-6371.872552353961,-7055.691562954509,0.0
-4218.589259819993,-5336.858886558367,-16336.644355598972,-5886.524206862829,-7807.160939966596,-6737.335866403044,-6216.259598928478,-6892.784319194647,0.0
-4167.759091859092,-5220.444051818098,-16191.324966698214,-5819.938556437673,-7563.336936408708,-6695.304250725472,-6074.961079639703,-6745.080407331776,0.0
-4043.486831667073,-5138.98924223826,-15970.84647180528,-5691.019593105139,-7479.716717213899,-6555.395822548473,-5964.192380161834,-6626.65069173486,0.0
-3873.9266451154003,-5038.559379858271,-15638.84750999083,-5501.827409170714,-7467.25593215375,-6329.185384438211,-5858.58907413411,-6510.815234205049,0.0
-3750.889371457714,-4893.7613212637025,-15312.64675926448,-5338.4557594571725,-7339.540247734647,-6149.0001331412,-5726.609925482798,-6367.403695763051,0.0
-3703.2039861708945,-4741.873024143007,-15101.65818690404,-5253.257239282775,-7069.307397917851,-6085.3113455860785,-5574.247394196002,-6204.775203141226,0.0
-3656.3344162214303,-4632.189064572127,-14957.345374986633,-5192.633328794853,-6827.804168424938,-6049.799710836519,-5437.3510931422525,-6059.266314713469,0.0
-3534.596236919386,-4557.396150884471,-14739.00201337345,-5069.544234856316,-6748.99913800504,-5916.461190839049,-5331.473939405488,-5944.836456028519,0.0
-3365.280765417741,-4461.287350330233,-14407.278911539057,-4882.144081876375,-6741.28364379276,-5693.532521972493,-5228.328195262418,-5831.979295400321,0.0
-3240.3316765608497,-4316.605681298415,-14078.161328654307,-4714.693934809564,-6614.923200696371,-5511.16233713742,-5094.056922101087,-5687.77918769782,0.0
-3190.856677517956,-4162.241040649659,-13864.030174459733,-4623.071905667323,-6342.813373095421,-5441.951821615416,-4936.732572407433,-5522.18823749123,0.0
-3145.249926126528,-4051.3338038858374,-13720.496321687586,-4560.0334238377945,-6099.610297068217,-5402.18855805419,-4796.943050381621,-5376.148848468086,0.0
-3027.679935425883,-3977.923128733675,-13507.053979735316,-4441.267537716354,-6021.936349874782,-5267.446075222202,-4692.364562728743,-5265.42859658212,0.0
-2863.2434432199766,-3884.7711818362754,-13181.475720457729,-4263.136752844157,-6018.380899137602,-5044.610458396496,-4593.922804272824,-5159.000733245446,0.0
-2743.4428703824665,-3744.2057204021394,-12857.93905720835,-4107.37619678452,-5898.091411713484,-4864.118893565632,-4466.842432241854,-5022.825001383516,0.0
-2699.502112659561,-3594.0580274422705,-12647.662587764877,-4026.8098083547375,-5631.3353104563375,-4799.5786484455275,-4317.089274044565,-4865.390683962643,0.0
-2658.0563733936865,-3485.103337210954,-12504.53429160345,-3969.8936301229223,-5389.538979509902,-4765.515828336947,-4181.40910204455,-4724.168661174583,0.0
-2542.727326006762,-3412.1801845053906,-12289.235035875805,-3850.941247414837,-5310.686439120184,-4636.013644644645,-4076.9713271809346,-4613.930892215264,0.0
-2381.2422690104654,-3322.083183554206,-11964.150779852313,-3670.0999848449455,-5309.14120517522,-4419.556646105204,-3979.1577856070116,-4507.624283232912,0.0
-2266.281212723336,-3187.811405692717,-11645.449593645375,-3512.902333451699,-5195.604243895012,-4246.925301325745,-3855.9623564222647,-4373.985021828263,0.0
-2226.636081285526,-3043.772695135305,-11441.713560095639,-3432.3899338184992,-4935.643178442586,-4188.989609612556,-3711.430521330623,-4219.426470310214,0.0
-2187.690033524758,-2939.58124623348,-11304.633114555643,-3377.03814210137,-4697.877715856967,-4159.23707462189,-3581.0910546534396,-4080.080603187889,0.0
-2074.554967512384,-2871.7485714460154,-11094.46840809471,-3262.291796939079,-4622.284793630745,-4033.079143989882,-3483.2937145810765,-3972.939710213089,0.0
-1914.609215514256,-2785.969081915869,-10771.294007262544,-3086.532932562899,-4623.94397196381,-3817.9349151649662,-3391.9953557656772,-3871.195469852361,0.0
-1798.5190539565558,-2652.1670822611472,-10449.000639614362,-2931.746949791698,-4511.295504844754,-3642.2167405612618,-3271.52008934296,-3740.736631509219,0.0
-1756.4843354427724,-2505.3555580558705,-10239.104159745111,-2851.651994712309,-4249.530931956862,-3578.6580860547438,-3125.790763845269,-3587.8862519242894,0.0
-1717.7156150909436,-2398.6099067797927,-10098.896649449125,-2798.4896007274397,-4009.9063377140005,-3545.428228463705,-2993.6606467139964,-3451.514827636395,0.0
-1608.6356343468128,-2330.573829358391,-9890.874704369819,-2688.940372383701,-3935.2356767304545,-3420.0499491436785,-2896.0269084811616,-3349.394053307439,0.0
-1455.1905226885872,-2247.587969339006,-9573.601118132196,-2519.90442885618,-3942.012213094267,-3209.129916033055,-2807.568431357334,-3253.466774336181,0.0
-1345.6685465454188,-2119.0392082305075,-9258.025874365821,-2370.9800812744065,-3837.105756178355,-3039.165294058051,-2691.345615679111,-3127.7852591383344,0.0
-1307.7203099754026,-1977.6450217833303,-9052.906398703044,-2293.055591506472,-3581.4125684305463,-2980.479256573225,-2548.2205443080506,-2975.9907435306063,0.0
-1269.911758853269,-1874.861931462445,-8915.075306610963,-2237.5831913936227,-3344.036377146546,-2950.0904042140987,-2415.448321957989,-2835.8454108920055,0.0
-1160.5184680065718,-1809.8892859416474,-8708.652956893582,-2123.729395005247,-3269.8271300156503,-2826.172584332624,-2315.394633116325,-2727.721108855595,0.0
-1007.4788315359774,-1729.4296242158255,-8393.519598861541,-1951.8018366427088,-3277.49293156638,-2616.0529847507314,-2225.0930904412244,-2627.5708432120537,0.0
-900.6994942983617,-1602.903093715888,-8081.867299263006,-1804.5083770307851,-3174.6000902996593,-2447.4273606169945,-2109.855438627462,-2502.5860604023023,0.0
-869.5425265229462,-1464.5080525814835,-7883.955196544186,-1734.6899835455076,-2922.277689389206,-2392.6661278016695,-1971.9310591427784,-2357.633389981604,0.0
-841.596675256746,-1366.4137682289154,-7755.3929329251,-1691.5247247031634,-2688.444530304647,-2368.476458983559,-1846.7658675857765,-2227.9621972365408,0.0
-740.084117940356,-1305.657508111494,-7555.746361002623,-1587.9740041480866,-2616.0079096371164,-2249.7375656452587,-1753.1046767714433,-2128.9333911520653,0.0
-589.1785619532594,-1227.5608878347643,-7242.378576860925,-1420.6659888176048,-2624.4617883093006,-2042.633309312289,-1667.4658191000176,-2034.4595260120323,0.0
-480.92257784663707,-1103.6016032982332,-6930.395614976925,-1274.7344711539777,-2524.642536669457,-1877.8926885278945,-1557.895298734461,-1914.464481851961,0.0
-448.7162553581457,-969.4746324332607,-6734.001138217434,-1206.4722220520414,-2278.492927277526,-1829.753169783469,-1427.4891762747604,-1776.094079038048,0.0
-420.99441593665813,-875.6012286890511,-6609.324035628276,-1164.9264401108246,-2050.724098211526,-1812.2722898123184,-1309.0803909910703,-1652.940111717872,0.0
-321.0036476550075,-818.0588073534335,-6415.449169883697,-1062.534928570421,-1982.2815186810324,-1697.6299048109454,-1219.6654157446078,-1558.5017852387805,0.0
-175.01570134946965,-744.3248432765209,-6110.729934385935,-897.8724676009706,-1995.195122967242,-1493.226068325773,-1137.1488633087945,-1467.6262636065085,0.0
-75.46366971642134,-626.7214579147226,-5809.590041329364,-756.961375717351,-1902.3638648951728,-1331.8810794177632,-1030.9113293162168,-1350.8771955945883,0.0
-52.23191075782428,-498.477603210269,-5623.062478267225,-694.3641539481837,-1663.7418598903917,-1288.0500437843943,-904.0486294163621,-1214.402756232535,0.0
-30.67188805690547,-408.871988692367,-5505.833273216697,-658.1041140783643,-1442.4622045795807,-1276.051024878477,-790.3516304808677,-1092.2377515589626,0.0
67.28826710770247,-355.0260569040379,-5316.746655568886,-559.6963445299763,-1380.1521680888945,-1167.5566478074556,-706.7512876722855,-998.703227914645,0.0
217.09262061794917,-283.36156095575967,-5011.843809765355,-394.6390990996771,-1397.7150466761254,-966.3469865855689,-627.4200304852515,-907.0197797266447,0.0
324.3456204195648,-165.59063521383143,-4706.144431416468,-249.2571858064741,-1307.1614104481916,-803.9998793928102,-520.6311181214123,-788.4527000985689,0.0
350.84759422567856,-39.55409536106093,-4518.577150351721,-185.70714502038877,-1072.3663189636272,-760.9911616875501,-395.53104166485485,-655.5399883593575,0.0
365.70391733551867,41.6383976862535,-4410.389491769405,-157.9919020981939,-859.8922134614153,-756.959814091855,-290.67327763118396,-546.396624784434,0.0
450.5063282886349,84.02650412719706,-4237.780883082451,-74.72346010819474,-808.8993568115881,-660.4056311073945,-220.05675914019469,-471.3561184350981,0.0
586.8788145932209,146.47384834354236,-3949.8657317759476,74.91097649567651,-835.7875220410739,-468.4283552669946,-152.55369084252982,-396.78800575617856,0.0
684.1477553496884,259.8293043217839,-3656.5059198977133,208.97803334791033,-749.3489104475224,-309.1835127508433,-52.887280693211075,-288.80804303407825,0.0
706.6536981874503,387.173326529113,-3473.840305254973,268.37777114058315,-511.480719282428,-263.1422904966456,72.57337038485129,-156.71042984921343,0.0
723.9160388247338,474.1812275231559,-3363.9602380743045,299.4387159086171,-290.6120983238302,-252.48180994906926,185.0157398054505,-39.599690631160314,0.0
813.1277186675259,521.6046611336559,-3188.722347203052,388.7410468278782,-233.16910360997937,-151.17996743051415,264.0067020367906,45.04051327073462,0.0
948.9491292175103,581.8353902012033,-2903.9363528706763,540.2136720081409,-262.7627584098669,37.918208528796384,332.3401833075987,122.4119239056697,0.0
1037.924774515093,684.3819060422273,-2621.1614755830433,669.4252821428457,-187.72582866639655,186.4179014315598,423.6884942215578,224.65780523924977,0.0
1047.823488875848,797.3310997307974,-2452.9402442609985,719.9891061608304,37.2978932852008,219.568577180736,537.3773446467557,347.23977630388805,0.0
1051.8874144742447,871.5391162590041,-2358.102297932743,740.4889662458543,248.87211812296962,219.85050579471616,639.1636228085387,454.24847224277073,0.0
1129.0276616463684,909.5125187203491,-2196.962468031262,818.2015416138406,300.02375087828125,314.0565024001269,709.2472240801418,528.211147834825,0.0
1257.5757514927623,964.8971321194443,-1922.295261052334,960.2608714759156,266.3087914770603,499.978447674289,771.9253662351473,596.4831959516044,0.0
1348.0888664206218,1068.5953307174022,-1642.7648598800142,1086.2145689135455,339.9517453937072,649.41814316842,862.8986178265515,694.6618246508131,0.0
1367.0656536193137,1187.0244667202683,-1472.196395829411,1139.2409318508323,565.3626528130237,684.3795980887357,979.6385020218803,817.820714229298,0.0
1382.0512834112292,1266.303429621731,-1374.0000511958503,1163.6077360604663,776.5170450735778,682.9914214715976,1083.1729932010971,926.0094014419923,0.0
1467.0242676671248,1305.3645834289428,-1212.3332577719048,1242.8180998877328,824.6594802221362,771.388919099105,1150.777256387656,998.3522301553883,0.0
1598.0430984127554,1357.7376947554112,-941.0952818532477,1382.8701171930034,785.5388558268946,950.5705829451064,1207.3187865770044,1061.9638946474001,0.0
1683.5700350285424,1454.1394555995835,-670.1509047455928,1502.50799244795,851.0201584250789,1093.807374313759,1289.3532356844785,1153.0746845210977,0.0
1687.5336257859205,1558.5736666490934,-516.6395387649178,1542.8514912363114,1063.1299884284253,1119.739223922895,1393.2365861904211,1265.6199565606466,0.0
1679.9925249755372,1618.1950118484258,-443.3903898880185,1549.8334436832765,1256.6473405453928,1104.9468976865091,1481.4712678664375,1360.5432988855755,0.0
1744.753070279577,1639.5121501772528,-305.724021413822,1615.1263426390456,1289.3061652693327,1181.284235630116,1537.9544608785545,1422.7894446551986,0.0
1865.6232199206825,1682.440348350515,-49.32001159190075,1750.4249799880552,1241.4560367962122,1355.2169055898678,1591.385059953373,1483.0931034821615,0.0
1949.299361317814,1777.230476597523,215.02948064512208,1870.721120233447,1303.3981434488505,1498.018077844923,1674.2283054672953,1573.9289710540647,0.0
1954.6144647634796,1885.737260051792,365.8878668718617,1911.4115794381619,1515.6802794971675,1524.9273182677764,1778.5296573657743,1685.3367763336628,0.0
1949.912254533621,1954.4313286485,439.2985281058496,1917.8574159802927,1713.828122528151,1513.1848443495558,1867.5460948066839,1779.6183853792156,0.0
2017.6589393515235,1985.658833157165,577.9250204663045,1981.8278113443416,1752.1577794773093,1593.5294419207844,1924.762374702803,1842.0920998030222,0.0
2138.9711954658296,2032.1477885124468,831.3101771859591,2113.0258359770046,1704.2902226939855,1766.9904558632293,1974.9557819474182,1899.600668909833,0.0
2220.931104104805,2122.4076862942525,1087.6584062703218,2227.534482698479,1759.546670832695,1903.0738999470627,2050.51715113364,1983.4161538109568,0.0
2225.1345359362203,2222.943467848894,1229.3636160691703,2264.660823805997,1963.4285590660957,1921.2327017245027,2148.103795479155,2087.3619731286394,0.0
2218.472763900248,2282.55380396877,1293.4353046105948,2268.92274234844,2153.384447976916,1900.5272470886998,2231.4697632494162,2174.965044471166,0.0
2278.6725347494767,2301.7648704418225,1419.7117334613645,2327.002746480381,2181.311657116161,1969.461589651949,2279.7078205230055,2228.412092577616,0.0
2387.5064558808413,2335.173206010794,1659.3193595168007,2448.615599024079,2121.7601404506004,2131.047267500484,2318.056785911688,2275.2224721605694,0.0
2458.676385130638,2417.313190640737,1906.4211952954383,2555.393626852294,2169.2918840464154,2260.8555268294854,2385.40911497574,2352.40550963859,0.0
2456.9532371696528,2515.6294574493254,2043.6931783998255,2588.0930043367216,2371.0958517050353,2278.6180440257485,2480.691439241311,2455.326001289992,0.0
2446.613852434449,2573.4908269486714,2101.8982213162335,2587.58598175935,2560.3226908633596,2257.268127238068,2563.2527518908696,2542.8716859700426,0.0
2503.8832457857284,2588.119126019978,2217.896308793248,2639.808117858822,2584.4420089676987,2321.955486467783,2609.1361183137624,2594.2188525717856,0.0
2610.6511089108294,2614.9275870619217,2444.83152837994,2756.4041184945136,2516.5755948451138,2476.819263628992,2643.4642455690214,2636.8433949513833,0.0
2678.488183494476,2689.228345782687,2678.1245192904535,2858.3317978390883,2551.9192686490646,2598.0086329525657,2703.9587427629112,2706.720768406227,0.0
2671.6045682450517,2780.348339591841,2801.868333385304,2885.431251206001,2741.5746467571807,2606.1844354437158,2789.9846856701447,2799.8416634045925,0.0
2658.027788681215,2834.9934044491274,2850.4127355246264,2879.953125522851,2924.2474845632632,2577.7460201841245,2864.8620956507352,2879.0454315917405,0.0
2715.79184780704,2849.543687153398,2961.419345014691,2927.571524996106,2947.56358798792,2639.3874483500886,2906.03085825572,2924.522800859093,0.0
2824.0300760673326,2874.8184090928066,3184.453425690508,3037.534442407146,2879.2566401948256,2792.6237701298955,2935.682561372071,2960.3962993755554,0.0
2892.0921006322815,2944.6273193167535,3412.209133537339,3131.059670735552,2911.5877858336025,2911.431752336756,2990.5191270978567,3021.8635085664655,0.0
2884.0373167512216,3030.175551512371,3528.285757372831,3151.1494207225533,3097.0988655771066,2916.6248868094453,3072.239272917823,3108.286334221327,0.0
2867.5392927260305,3079.6027781314924,3566.6767652429226,3142.1253092828897,3275.662434763473,2884.754470816567,3145.3804009899645,3184.5655809039786,0.0
2920.4789848407167,3090.224989057131,3665.824799363209,3189.3109067301248,3294.7042126809943,2942.7453103821244,3186.299661692862,3229.8260179698655,0.0
3022.1957275999885,3112.655718744929,3877.074610500297,3299.6812644363604,3221.3183102807297,3092.5056508808925,3215.061466437316,3265.919817053876,0.0
3081.2823350129793,3177.5796648569326,4093.103039051751,3390.8337289617643,3245.6609220449864,3206.0775122850214,3265.1736018426627,3324.8288272439627,0.0
3061.59995690509,3253.529804155127,4196.482367442399,3403.3953967590865,3418.614218235211,3201.1342740460323,3336.1099056878834,3402.985111293567,0.0
3033.3387279637727,3290.6618573165692,4222.038513580182,3383.3424479673417,3582.6709845282035,3155.1047340018545,3394.731804041208,3466.199816992822,0.0
3077.9494064936052,3290.9702891716893,4310.52141868941,3420.8107372881946,3590.248943814322,3200.6397979735984,3423.3439557588595,3498.5818202978935,0.0
3176.356262191738,3308.4637613862096,4514.883458287924,3526.8128322271314,3511.2881120318775,3344.980422084682,3446.8033927480346,3526.857239572906,0.0
3235.875587679851,3374.781440142247,4727.38867308101,3619.053500848449,3536.3886288030567,3460.6625734486574,3499.351948673914,3584.5170295472076,0.0
3217.607490013303,3456.8653360724174,4828.453395757383,3635.021265873104,3715.4218510788005,3461.430181860428,3577.594351366147,3666.394391321095,0.0
3189.588157657658,3500.952245107973,4850.686554510092,3617.2379054856947,3887.2285790329656,3419.488367218098,3643.3694046886644,3734.9057335734574,0.0
3232.609783168148,3504.3169639934627,4933.447398466531,3653.5352792107096,3898.4884091769795,3463.522127526716,3673.562238971686,3769.6482515289176,0.0
3328.165821104248,3518.345399833078,5129.0635012561725,3754.3635676032827,3815.541027329051,3599.8145091739134,3690.5171806627673,3793.9036044360773,0.0
3384.4710067374203,3575.8394460076515,5330.05277955843,3838.742630033144,3830.1491468931094,3703.2697965532548,3730.808439559235,3841.54781174309,0.0
3361.981609727125,3646.2316546857055,5416.839416455758,3845.0262554461324,3995.477939779427,3690.399883036451,3794.92085894431,3910.149312159732,0.0
3326.475465010253,3676.454618616383,5421.094276166893,3814.753950465959,4152.24732014155,3634.097955402564,3846.341559984331,3963.7489300405173,0.0
3358.821556837311,3664.5651910879,5483.491038589032,3836.4005052570024,4148.479751189075,3664.1990772083846,3863.045116023842,3983.6101993077145,0.0
3445.333037030692,3666.151808411389,5662.133981819591,3925.2235021090323,4053.595584423687,3791.052499551199,3870.3111312491383,3997.0982852452844,0.0
3499.2874078025816,3719.0343574395906,5854.756986155377,4004.9233838891655,4062.1584040268417,3892.983734803525,3906.9746267638147,4041.220651815312,0.0
3480.7825562160897,3793.206681256247,5940.430255042534,4013.2149336557814,4227.321112071488,3885.234541108372,3972.3433298651935,4111.69750427691,0.0
3450.7987944015294,3831.546314635995,5944.873912993792,3986.9459673364563,4387.959215133665,3836.406890085421,4026.833092384874,4168.09693100094,0.0
3485.3093614308577,3826.4736035525716,6003.945182886712,4009.947141512075,4388.080715092849,3872.1123954377563,4045.264194897355,4188.271397562644,0.0
3567.5087955747795,3828.4397501493368,6173.797046735603,4094.5770524393765,4290.801979042716,3999.170960240626,4049.8109175713594,4197.537635444018,0.0
3610.7944083166817,3873.640170175505,6353.016772925339,4164.928805420418,4288.451999197982,4094.5589919545973,4078.5236810153096,4233.181151606622,0.0
3579.404301817714,3935.530646052132,6424.123463403124,4162.868045071751,4439.806062064162,4075.7267097372123,4133.998362201181,4294.454848473131,0.0
3538.6036319501427,3961.2889335017303,6415.347607007656,4128.683536397532,4589.579172781408,4014.42875018723,4180.022785754792,4344.006087344494,0.0
3565.4170724887763,3945.040024293239,6462.078880107097,4145.864954032208,4581.963821847407,4038.4603830513906,4191.632657211393,4359.297668556891,0.0
3642.787713818091,3938.404839533449,6620.290081566333,4225.618629314161,4479.09044350259,4157.025905655679,4190.707525321799,4364.303706029145,0.0
3683.4192056334023,3978.435651491036,6789.043332879412,4291.296611410583,4473.199992143794,4248.039330143568,4215.423139596389,4395.53006092033,0.0
3649.4221358414725,4037.6213596810717,6849.32946705993,4283.117440005837,4621.32649181288,4226.95493517774,4267.374303354248,4451.151006719913,0.0
3605.846043140071,4063.237907561041,6829.278643677338,4242.053261897408,4767.646968369712,4164.868062793887,4310.787682958044,4494.589807560768,0.0
3633.204746201535,4051.2191874472414,6868.5456158487195,4256.201941423217,4758.790875521628,4191.451782019417,4323.321533635057,4506.352073115049,0.0
3715.8698936193487,4051.6041573861594,7025.4191636508385,4338.821355086463,4657.052674384434,4314.755354760675,4326.361243381758,4510.929493867096,0.0
3762.7343739628423,4096.170324559149,7195.233587904102,4409.317431658492,4651.612337215124,4407.712928285593,4353.6718811664405,4541.866097318413,0.0
