EEG 1, EEG 2, EEG 3, EEG 4, EEG 5, EEG 6, EEG 7, EEG 8, TRIG
39996.380,47367.570,115738.300,53939.150,62180.450,54303.960,52599.110,56606.550,0.000
132316.100,156621.700,380749.400,177569.600,205611.100,179544.600,173954.300,187196.300,0.000
197762.900,233861.000,563678.800,263191.900,306896.400,268171.000,259770.100,279522.500,0.000
213262.800,251908.700,600493.300,280779.100,330208.500,289115.000,279711.500,300959.500,0.000
215224.300,254082.400,599775.900,280738.700,332650.000,291800.800,281926.600,303325.600,0.000
206128.700,243228.600,568906.100,266542.900,318244.300,279251.800,269840.100,290285.400,0.000
186841.500,220269.900,510182.600,239312.400,288084.900,252645.300,244485.800,262956.400,0.000
175623.500,206837.000,476202.400,223580.400,270293.100,237112.900,229670.700,246985.000,0.000
183424.100,215962.000,497769.000,233732.400,281917.900,247700.600,239734.600,257813.300,0.000
196344.000,231237.100,533775.500,250627.500,301656.600,265344.700,256552.200,275917.200,0.000
194620.800,229173.400,527077.900,247632.500,298840.000,262927.600,254231.900,273413.100,0.000
179382.000,211075.700,481764.100,226618.500,275073.000,242010.000,234212.700,251851.000,0.000
169611.000,199447.300,453166.000,213359.100,259727.100,228587.000,221354.000,237999.000,0.000
175557.100,206450.300,470349.700,221427.000,268728.200,236673.600,229092.000,246322.700,0.000
186002.800,218825.500,500082.000,235359.500,284802.800,250929.100,242751.500,261020.200,0.000
185068.400,217710.600,496426.100,233752.300,283272.800,249635.400,241495.500,259657.600,0.000
173498.800,203994.000,462286.800,217917.700,265246.200,233832.400,226296.100,243287.000,0.000
165981.100,195087.600,440559.200,207828.000,253511.900,223568.700,216426.200,232659.500,0.000
170447.200,200374.700,453714.300,213990.700,260363.400,229646.400,222280.300,238960.700,0.000
178405.000,209810.400,476555.000,224688.400,272669.000,240486.700,232719.700,250196.200,0.000
177868.200,209163.800,474405.400,223758.800,271775.100,239748.500,231992.800,249411.300,0.000
169367.500,199087.500,449383.700,212153.800,258511.700,228177.900,220806.200,237370.200,0.000
163768.200,192463.200,433262.200,204667.300,249791.000,220557.800,213453.000,229456.600,0.000
166907.000,196180.200,442589.600,209037.800,254646.400,224805.500,217587.300,233905.300,0.000
172645.100,202975.800,459115.200,216777.700,263545.000,232584.600,225131.300,242022.000,0.000
172369.100,202626.300,457898.000,216264.100,263052.800,232202.100,224742.000,241601.300,0.000
166425.600,195578.700,440387.700,208144.900,253750.900,224147.700,216897.600,233159.500,0.000
162422.500,190853.500,428871.900,202795.600,247529.100,218718.900,211638.600,227498.900,0.000
164414.000,193215.800,434858.800,205598.300,250648.300,221389.600,214285.000,230344.100,0.000
168237.300,197740.000,445929.100,210783.000,256606.400,226545.500,219335.400,235777.000,0.000
168121.700,197577.500,445305.700,210540.800,256363.900,226388.800,219158.500,235585.700,0.000
164259.000,192998.800,433884.000,205258.600,250290.000,221191.900,214039.100,230077.200,0.000
161547.300,189815.300,426097.300,201643.600,246096.800,217543.400,210481.600,226248.600,0.000
162597.100,191072.300,429330.300,203158.000,247784.900,218934.100,211907.400,227778.800,0.000
164863.100,193751.900,435918.800,206248.500,251336.100,221956.500,214921.600,231017.500,0.000
164842.900,193700.800,435665.300,206167.200,251239.300,221927.500,214869.900,230961.300,0.000
162614.100,191060.200,429038.400,203107.000,247701.700,218968.400,211892.200,227760.600,0.000
160948.300,189115.100,424235.100,200878.100,245134.300,216748.200,209699.300,225402.200,0.000
161294.900,189529.500,425339.100,201403.900,245724.800,217164.700,210187.600,225923.700,0.000
162347.300,190761.100,428392.200,202847.200,247378.600,218513.700,211595.600,227434.800,0.000
162382.500,190773.100,428359.000,202861.900,247359.500,218551.800,211610.300,227452.700,0.000
161402.400,189615.100,425395.000,201501.400,245762.500,217295.100,210271.800,226019.700,0.000
160531.800,188617.200,422881.200,200334.800,244439.600,216164.800,209128.300,224793.900,0.000
160330.600,188388.100,422374.200,200105.300,244192.100,215845.400,208906.800,224552.900,0.000
160447.500,188516.800,422736.600,200289.600,244403.400,215928.800,209095.700,224751.400,0.000
160504.900,188559.100,422820.700,200354.700,244428.900,215998.900,209147.000,224807.300,0.000
160445.200,188491.500,422554.800,200249.800,244270.900,215992.900,209022.600,224679.500,0.000
160178.800,188205.800,421767.600,199887.900,243888.800,215684.600,208672.100,224305.500,0.000
159608.200,187535.100,420148.400,199137.900,243063.600,214866.000,207958.400,223534.200,0.000
159059.100,186872.300,418579.300,198416.300,242237.300,214046.400,207266.400,222786.400,0.000
159121.200,186920.200,418707.600,198496.900,242269.500,214120.000,207323.200,222849.200,0.000
159710.600,187620.900,420325.700,199269.300,243114.700,214986.600,208049.400,223634.800,0.000
159885.400,187855.700,420778.000,199487.500,243407.400,215270.100,208271.000,223874.400,0.000
159079.600,186902.200,418447.300,198407.200,242206.300,214129.600,207243.000,222763.700,0.000
158075.600,185695.800,415578.400,197076.900,240669.600,212690.000,205957.600,221373.600,0.000
158117.600,185720.800,415694.100,197145.300,240680.700,212739.700,205998.800,221416.200,0.000
159111.700,186907.300,418517.300,198473.300,242175.600,214168.500,207267.800,222786.900,0.000
159577.000,187487.200,419806.200,199081.700,242932.400,214855.500,207876.500,223446.200,0.000
158657.200,186394.300,417110.700,197840.200,241549.400,213561.800,206696.400,222173.500,0.000
157398.400,184889.200,413486.900,196165.500,239614.000,211782.000,205074.400,220422.700,0.000
157422.100,184901.400,413575.700,196220.000,239606.900,211810.300,205096.600,220446.500,0.000
158641.700,186357.000,417080.700,197862.200,241458.300,213534.500,206667.100,222141.900,0.000
159279.500,187139.300,418872.700,198701.000,242476.600,214448.400,207501.400,223043.500,0.000
158311.900,185992.200,416036.000,197384.200,241012.300,213102.600,206252.100,221697.300,0.000
156930.600,184345.600,412052.400,195534.900,238886.600,211170.600,204460.400,219764.900,0.000
156951.900,184351.900,412119.200,195582.400,238878.000,211187.200,204473.400,219777.300,0.000
158281.300,185926.800,415926.100,197371.500,240895.900,213035.800,206185.500,221622.000,0.000
159018.000,186818.200,417983.800,198338.900,242055.800,214069.700,207144.000,222655.200,0.000
158080.100,185709.100,415205.200,197053.400,240626.100,212773.400,205924.300,221340.400,0.000
156680.800,184051.500,411165.200,195175.600,238474.600,210836.400,204106.600,219381.600,0.000
156670.000,184027.500,411172.600,195185.000,238431.800,210815.800,204087.900,219361.600,0.000
157977.300,185576.200,414955.700,196954.300,240429.300,212624.400,205786.500,221191.700,0.000
158727.000,186478.900,417073.900,197948.300,241612.200,213668.600,206772.600,222253.700,0.000
157849.500,185438.500,414473.600,196748.600,240270.000,212460.800,205633.200,221026.300,0.000
156513.000,183854.700,410606.800,194955.900,238212.500,210618.400,203894.400,219155.000,0.000
156487.700,183814.600,410574.800,194949.500,238158.000,210579.200,203860.200,219121.600,0.000
157715.100,185268.100,414140.600,196617.200,240043.500,212271.900,205462.800,220851.600,0.000
158440.200,186140.400,416191.800,197577.300,241186.500,213277.700,206419.100,221883.300,0.000
157656.200,185213.100,413857.000,196494.900,239981.700,212204.600,205396.400,220781.600,0.000
156432.400,183770.400,410310.900,194844.000,238099.400,210530.300,203800.800,219061.600,0.000
156404.200,183731.700,410252.200,194824.200,238043.500,210491.100,203761.200,219015.800,0.000
157524.700,185056.200,413487.000,196342.600,239759.500,212028.200,205220.800,220584.000,0.000
158203.000,185866.800,415391.500,197240.200,240817.900,212959.400,206108.400,221537.600,0.000
157526.900,185062.900,413366.200,196306.200,239769.500,212031.800,205217.700,220578.800,0.000
156437.000,183776.600,410216.000,194837.400,238095.000,210542.300,203791.400,219045.000,0.000
156389.900,183710.800,410112.600,194790.400,238013.400,210469.500,203724.000,218973.400,0.000
157366.600,184856.200,412924.000,196109.600,239499.300,211792.000,204991.000,220337.000,0.000
157978.100,185581.800,414621.100,196912.800,240442.300,212620.400,205787.100,221194.200,0.000
157420.400,184917.700,412925.800,196136.200,239569.400,211856.700,205050.000,220401.300,0.000
156495.800,183829.300,410234.000,194887.300,238146.000,210599.200,203840.700,219100.400,0.000
156447.000,183766.500,410117.100,194836.500,238065.600,210528.800,203776.300,219031.600,0.000
157256.100,184721.600,412474.300,195936.200,239309.000,211629.500,204835.600,220172.100,0.000
157758.900,185325.000,413908.400,196604.700,240100.900,212319.000,205501.600,220889.700,0.000
157291.400,184770.600,412509.000,195958.400,239375.100,211689.100,204889.300,220231.600,0.000
156521.100,183867.000,410269.100,194918.400,238194.300,210650.500,203883.500,219148.800,0.000
156474.000,183807.000,410146.900,194868.600,238121.500,210584.300,203822.500,219081.300,0.000
157137.200,184584.900,412072.200,195774.000,239140.000,211482.000,204693.900,220016.300,0.000
157557.500,185086.000,413267.600,196335.900,239801.800,212056.800,205254.500,220617.700,0.000
157191.600,184653.000,412165.200,195827.000,239229.900,211566.400,204773.200,220099.200,0.000
156573.500,183932.700,410359.800,194986.900,238280.500,210735.300,203962.300,219226.300,0.000
156527.400,183875.100,410231.000,194931.500,238207.800,210667.800,203899.200,219158.200,0.000
157050.000,184487.000,411744.300,195642.500,239008.500,211368.500,204581.800,219892.700,0.000
157390.800,184893.300,412707.300,196095.300,239542.900,211828.300,205031.300,220376.500,0.000
157120.300,184568.600,411874.000,195713.600,239110.800,211462.000,204669.100,219987.000,0.000
156646.300,184013.300,410472.800,195065.500,238379.500,210823.000,204044.200,219316.000,0.000
156604.400,183957.000,410346.100,195013.900,238312.500,210758.500,203986.200,219256.000,0.000
156996.500,184410.100,411483.200,195550.300,238910.000,211279.000,204498.400,219809.000,0.000
157256.900,184716.900,412220.900,195898.100,239316.400,211626.900,204842.800,220180.000,0.000
157061.400,184481.300,411611.500,195621.500,238998.700,211364.100,204580.100,219896.600,0.000
156706.000,184072.900,410560.400,195135.800,238456.800,210893.100,204114.900,219394.800,0.000
156663.100,184025.500,410437.100,195082.600,238399.200,210835.500,204062.600,219337.200,0.000
156942.900,184354.900,411253.000,195465.300,238830.800,211209.400,204433.400,219734.700,0.000
157133.500,184585.500,411799.000,195720.000,239135.100,211468.500,204691.000,220009.900,0.000
156995.600,184420.500,411376.800,195527.200,238912.600,211290.900,204507.900,219812.100,0.000
156734.300,184121.400,410617.800,195174.900,238519.500,210953.100,204168.800,219448.000,0.000
156688.300,184067.400,410496.100,195121.500,238458.800,210894.500,204115.500,219391.700,0.000
156873.400,184283.200,411041.000,195378.700,238746.800,211141.700,204365.500,219661.500,0.000
157009.100,184446.700,411425.300,195559.700,238967.500,211324.800,204550.600,219860.600,0.000
156931.800,184347.900,411165.600,195443.700,238832.100,211221.300,204439.400,219740.400,0.000
156764.300,184154.600,410665.000,195210.200,238575.000,211001.400,204213.600,219497.500,0.000
156731.600,184111.800,410564.300,195165.800,238525.500,210951.700,204167.300,219447.700,0.000
156855.600,184250.300,410903.200,195332.700,238705.300,211104.700,204325.000,219616.400,0.000
156953.800,184366.700,411158.500,195460.400,238856.600,211228.100,204452.200,219752.400,0.000
156915.100,184316.800,411017.900,195400.700,238783.300,211179.800,204393.500,219689.300,0.000
156807.200,184202.500,410710.600,195253.600,238630.300,211051.800,204255.300,219540.700,0.000
156769.100,184162.600,410615.300,195206.500,238585.500,211005.000,204212.500,219492.700,0.000
156821.900,184222.100,410773.900,195281.700,238666.000,211066.600,204285.600,219569.000,0.000
156869.400,184280.300,410908.800,195346.300,238746.400,211123.200,204353.000,219641.900,0.000
156861.700,184266.200,410858.500,195329.500,238717.900,211115.200,204335.400,219624.800,0.000
156821.000,184225.600,410717.000,195267.300,238654.700,211070.800,204279.600,219565.000,0.000
156797.000,184194.100,410638.800,195231.700,238618.100,211033.500,204248.900,219531.100,0.000
156804.900,184195.700,410661.800,195240.000,238622.700,211031.800,204258.800,219541.300,0.000
156824.500,184219.000,410708.500,195261.600,238654.900,211051.600,204285.500,219569.300,0.000
156841.600,184231.900,410726.200,195277.800,238661.200,211074.800,204299.200,219582.800,0.000
156839.400,184235.900,410701.400,195271.200,238658.200,211080.400,204295.000,219577.700,0.000
156822.300,184215.300,410639.000,195246.800,238634.100,211057.000,204273.000,219554.100,0.000
156803.500,184189.700,410576.200,195221.900,238601.200,211027.000,204247.600,219527.500,0.000
156796.600,184185.200,410559.300,195215.500,238603.600,211017.400,204244.900,219525.600,0.000
156816.600,184202.200,410613.100,195243.500,238626.800,211046.100,204270.100,219554.300,0.000
156833.900,184227.500,410662.000,195265.400,238659.400,211076.500,204295.400,219584.300,0.000
156820.500,184210.300,410610.300,195242.800,238641.800,211059.000,204277.800,219567.900,0.000
156785.900,184166.100,410493.200,195190.500,238582.900,211008.500,204230.500,219516.800,0.000
156768.200,184148.600,410439.400,195163.100,238565.200,210981.400,204212.700,219495.600,0.000
156805.700,184185.300,410530.800,195208.300,238608.100,211027.400,204256.800,219541.200,0.000
156855.500,184249.000,410649.300,195267.700,238683.000,211095.300,204318.600,219605.200,0.000
156847.800,184241.600,410609.900,195252.400,238675.600,211084.600,204305.600,219590.500,0.000
156789.600,184171.700,410442.500,195175.800,238586.000,211005.500,204226.500,219507.800,0.000
156755.000,184134.300,410350.300,195135.200,238543.500,210957.500,204184.300,219464.700,0.000
156790.300,184167.600,410447.200,195187.600,238586.300,211002.300,204226.200,219510.200,0.000
156840.200,184230.300,410587.600,195257.000,238667.300,211073.500,204293.300,219581.700,0.000
156835.800,184224.700,410559.800,195250.500,238663.200,211068.400,204289.000,219576.100,0.000
156778.500,184156.400,410384.900,195175.700,238571.800,210992.200,204215.800,219496.700,0.000
156740.300,184119.000,410282.200,195129.600,238527.700,210944.100,204174.900,219453.300,0.000
156778.800,184159.800,410387.500,195180.700,238576.600,210996.500,204222.700,219506.000,0.000
156836.000,184233.000,410546.000,195250.900,238665.200,211078.000,204297.400,219586.200,0.000
156832.400,184231.000,410523.700,195237.800,238662.300,211074.600,204295.000,219580.500,0.000
156772.800,184161.300,410340.800,195152.400,238567.000,210995.200,204219.100,219494.800,0.000
156734.100,184122.900,410229.000,195099.900,238521.000,210945.900,204176.200,219447.300,0.000
156770.300,184160.100,410328.800,195150.000,238570.700,210995.300,204222.300,219500.100,0.000
156823.000,184225.000,410484.100,195223.800,238658.700,211069.100,204293.700,219581.800,0.000
156819.200,184216.500,410464.700,195219.100,238654.800,211060.600,204288.400,219578.400,0.000
156764.100,184146.300,410289.300,195142.900,238560.000,210982.900,204212.000,219495.700,0.000
156728.100,184108.100,410178.800,195092.800,238512.200,210935.400,204167.000,219446.800,0.000
156764.000,184144.100,410271.400,195139.000,238557.700,210984.100,204209.200,219492.900,0.000
156816.100,184210.200,410421.200,195208.600,238644.000,211058.200,204279.500,219569.700,0.000
156813.100,184206.100,410406.400,195202.600,238642.500,211053.100,204278.200,219568.400,0.000
156761.300,184141.700,410243.800,195127.700,238552.900,210983.300,204206.900,219491.900,0.000
156725.300,184103.700,410138.400,195075.200,238506.400,210936.700,204160.500,219443.500,0.000
156756.600,184130.500,410219.600,195114.800,238543.700,210972.200,204195.500,219482.400,0.000
156809.600,184190.800,410359.200,195185.400,238623.300,211037.800,204264.600,219556.200,0.000
156814.500,184193.200,410352.700,195192.000,238628.400,211042.200,204271.000,219562.900,0.000
156769.800,184140.300,410210.800,195134.000,238554.400,210988.300,204211.700,219500.700,0.000
156734.900,184108.700,410116.300,195092.800,238519.300,210950.400,204173.900,219460.900,0.000
156757.100,184133.600,410183.300,195128.000,238554.100,210985.800,204203.700,219492.900,0.000
156797.300,184191.300,410302.000,195184.600,238626.900,211051.500,204259.000,219552.800,0.000
156799.800,184195.300,410300.100,195187.300,238634.800,211054.800,204261.400,219555.000,0.000
156762.000,184140.300,410181.600,195137.000,238562.200,210987.400,204207.500,219494.900,0.000
156733.800,184104.500,410095.700,195099.600,238517.600,210934.800,204171.100,219454.000,0.000
156759.300,184130.100,410147.700,195128.800,238542.400,210968.500,204195.000,219479.500,0.000
156797.400,184186.700,410246.400,195173.800,238608.200,211033.400,204240.600,219530.300,0.000
156796.000,184188.300,410240.600,195168.600,238612.500,211033.800,204237.800,219529.700,0.000
156759.500,184139.900,410138.200,195119.600,238547.100,210975.500,204189.500,219478.400,0.000
156733.600,184112.100,410066.100,195086.100,238511.600,210935.600,204162.100,219447.400,0.000
156757.300,184134.700,410112.500,195115.200,238532.600,210968.700,204189.800,219475.600,0.000
156790.800,184181.500,410198.500,195157.500,238588.900,211025.200,204235.600,219525.700,0.000
156787.000,184178.500,410192.600,195152.300,238595.100,211026.600,204234.300,219526.800,0.000
156756.400,184135.100,410105.800,195111.700,238545.100,210981.900,204193.200,219484.000,0.000
156737.400,184111.200,410043.300,195085.000,238522.100,210949.500,204171.300,219460.100,0.000
156754.300,184123.700,410074.200,195105.000,238535.500,210968.400,204190.700,219480.100,0.000
156774.600,184155.800,410136.200,195132.600,238573.700,211004.200,204222.900,219512.900,0.000
156771.900,184155.600,410132.300,195130.100,238577.400,211006.800,204225.600,219512.500,0.000
156753.100,184129.300,410070.300,195105.100,238541.300,210981.600,204202.100,219484.000,0.000
156735.800,184114.200,410021.600,195083.300,238527.300,210958.600,204187.000,219466.500,0.000
156742.500,184119.400,410040.500,195093.600,238535.600,210968.500,204197.000,219478.000,0.000
156755.900,184141.500,410084.800,195113.100,238564.500,210992.300,204219.100,219503.300,0.000
156757.700,184143.700,410083.300,195114.600,238569.900,210994.300,204222.900,219508.400,0.000
156748.500,184130.100,410041.900,195100.300,238543.900,210977.300,204207.000,219491.000,0.000
156735.600,184123.500,410005.600,195083.200,238531.700,210960.000,204193.900,219475.800,0.000
156737.800,184125.600,410014.800,195085.600,238528.300,210967.800,204194.500,219475.500,0.000
156745.100,184141.600,410044.600,195095.600,238546.400,210986.100,204205.800,219487.500,0.000
156746.700,184142.100,410043.000,195097.800,238552.300,210985.100,204208.500,219490.700,0.000
156741.000,184129.300,410011.100,195088.500,238533.200,210971.600,204197.100,219478.200,0.000
156734.800,184125.000,409982.400,195077.200,238530.800,210961.700,204190.000,219470.300,0.000
156749.300,184132.500,409994.400,195091.000,238537.500,210974.700,204201.500,219481.400,0.000
156763.100,184149.600,410018.700,195106.400,238554.900,210990.300,204218.600,219497.700,0.000
156760.300,184145.600,410009.800,195101.200,238551.400,210984.200,204214.300,219492.300,0.000
156755.600,184137.200,409985.500,195089.700,238535.400,210976.400,204199.600,219476.500,0.000
156752.000,184139.000,409965.100,195079.700,238541.900,210972.700,204193.100,219469.000,0.000
156754.000,184133.300,409961.700,195080.500,238538.600,210972.300,204191.700,219466.700,0.000
156756.200,184134.400,409968.700,195084.500,238542.100,210972.400,204197.100,219472.000,0.000
156758.600,184133.000,409965.500,195086.300,238543.100,210969.500,204200.100,219475.200,0.000
156759.300,184130.300,409952.700,195082.800,238534.000,210970.000,204194.100,219471.100,0.000
156753.200,184129.800,409935.200,195072.000,238538.200,210966.700,204187.500,219467.000,0.000
156751.500,184119.300,409929.400,195070.400,238528.100,210960.100,204183.500,219464.000,0.000
156749.300,184115.500,409931.200,195072.000,238522.000,210951.100,204185.400,219466.500,0.000
156750.600,184117.700,409929.300,195076.700,238521.600,210951.200,204191.000,219474.000,0.000
156754.900,184129.000,409928.500,195084.000,238526.900,210969.600,204196.100,219481.900,0.000
156748.500,184137.200,409918.300,195080.500,238546.000,210978.100,204195.500,219483.300,0.000
156742.800,184123.600,409907.300,195078.500,238539.100,210967.400,204189.200,219476.600,0.000
156741.200,184115.600,409901.800,195078.600,238530.900,210951.600,204188.900,219474.800,0.000
156746.800,184118.500,409898.100,195081.000,238530.100,210952.100,204192.800,219477.100,0.000
156754.400,184133.200,409897.900,195081.600,238535.000,210977.200,204193.800,219476.600,0.000
156752.100,184147.000,409892.400,195073.400,238556.300,210994.400,204193.100,219474.600,0.000
156750.000,184135.600,409889.300,195072.400,238551.400,210984.400,204193.100,219472.600,0.000
156744.600,184122.100,409884.100,195071.900,238538.000,210959.300,204196.700,219473.500,0.000
156738.700,184116.600,409868.200,195066.100,238527.100,210950.300,204195.400,219470.900,0.000
156738.600,184125.500,409857.200,195060.600,238526.200,210972.600,204190.600,219467.500,0.000
156738.600,184138.000,409850.000,195055.800,238547.700,210992.100,204191.200,219470.300,0.000
156742.900,184128.000,409847.400,195060.900,238545.400,210984.400,204192.500,219471.500,0.000
156744.400,184116.000,409843.200,195065.400,238535.000,210959.000,204194.300,219472.300,0.000
156743.300,184107.000,409830.200,195063.300,238522.100,210943.500,204190.800,219468.600,0.000
156743.000,184110.200,409823.900,195059.400,238515.000,210954.300,204183.200,219462.500,0.000
156742.000,184124.300,409822.100,195056.000,238535.800,210968.500,204182.200,219463.500,0.000
156745.800,184120.900,409820.600,195060.800,238535.600,210965.400,204182.700,219464.400,0.000
156743.100,184111.000,409811.400,195059.700,238524.200,210947.200,204181.900,219463.100,0.000
156739.600,184105.000,409798.900,195055.300,238517.000,210940.800,204181.600,219463.600,0.000
156744.500,184114.800,409802.600,195059.100,238520.800,210961.500,204186.800,219470.800,0.000
156741.700,184124.800,409801.900,195057.600,238536.900,210973.300,204190.100,219475.800,0.000
156734.400,184111.300,409791.000,195054.600,238524.500,210962.000,204182.800,219469.700,0.000
156730.200,184105.800,409784.000,195054.600,238519.000,210948.700,204181.700,219469.000,0.000
156731.000,184107.000,409779.900,195056.000,238522.600,210945.900,204184.800,219471.000,0.000
156733.700,184112.300,409782.400,195057.900,238523.000,210954.800,204185.700,219471.000,0.000
156735.700,184126.500,409784.000,195059.500,238541.000,210964.400,204191.600,219476.900,0.000
156741.000,184128.300,409781.700,195066.300,238541.100,210966.700,204194.800,219479.200,0.000
156738.200,184125.500,409771.800,195064.700,238536.600,210958.000,204191.600,219475.300,0.000
156733.700,184119.200,409760.700,195059.200,238532.800,210950.400,204186.300,219470.300,0.000
156735.900,184118.000,409763.100,195060.600,238527.700,210955.400,204185.600,219470.400,0.000
156731.600,184119.100,409756.900,195054.500,238533.000,210954.000,204184.700,219470.100,0.000
156729.800,184108.900,409741.600,195049.000,238520.300,210948.000,204177.800,219462.500,0.000
156735.200,184113.600,409734.700,195050.400,238523.900,210951.500,204181.100,219464.200,0.000
156744.200,184121.400,409736.600,195058.400,238539.600,210959.200,204192.700,219474.000,0.000
156746.100,184117.200,409738.900,195063.800,238534.600,210956.800,204195.800,219476.000,0.000
156734.600,184109.100,409724.100,195053.200,238526.600,210941.100,204187.800,219468.000,0.000
156727.300,184098.300,409704.100,195041.600,238509.600,210933.100,204174.900,219455.000,0.000
156719.800,184098.000,409687.300,195029.500,238508.900,210931.400,204165.100,219445.100,0.000
156720.400,184101.000,409682.100,195027.700,238521.100,210931.200,204165.400,219445.100,0.000
156733.400,184106.800,409695.900,195041.900,238527.900,210936.600,204176.300,219455.900,0.000
156739.100,184114.800,409699.900,195048.100,238538.800,210938.800,204187.000,219466.700,0.000
156743.800,184117.300,409694.300,195050.300,238535.400,210948.100,204191.600,219470.500,0.000
156739.100,184121.800,409681.300,195042.400,238534.700,210955.700,204190.100,219468.300,0.000
156722.800,184110.400,409658.300,195024.700,238523.900,210945.600,204177.400,219454.500,0.000
156711.800,184096.400,409649.300,195016.300,238505.300,210933.500,204168.300,219442.600,0.000
156708.500,184099.600,409649.200,195015.500,238514.500,210929.400,204173.900,219446.600,0.000
156709.700,184099.700,409645.800,195017.600,238516.100,210932.300,204177.300,219450.500,0.000
156702.000,184099.400,409632.800,195009.800,238514.500,210931.800,204171.300,219446.200,0.000
156697.300,184096.900,409620.500,195003.500,238512.000,210929.300,204164.800,219441.100,0.000
156703.900,184096.900,409625.600,195010.000,238506.200,210930.300,204165.600,219442.600,0.000
156702.700,184098.800,409623.200,195009.200,238513.300,210923.500,204166.100,219443.100,0.000
156696.700,184089.300,409609.800,195002.900,238504.500,210916.200,204157.800,219433.200,0.000
156689.800,184089.200,409599.100,194995.200,238503.300,210917.100,204153.200,219426.900,0.000
156690.800,184093.600,409596.400,194994.700,238509.100,210924.500,204157.200,219430.400,0.000
156700.500,184097.100,409605.900,195003.500,238507.500,210933.000,204165.800,219438.200,0.000
156704.400,184101.800,409606.900,195003.900,238516.100,210933.000,204172.700,219443.300,0.000
156708.500,184098.500,409601.600,195001.700,238511.900,210935.200,204171.300,219440.300,0.000
156707.700,184100.900,409595.200,194995.500,238514.300,210940.300,204167.200,219436.000,0.000
156704.600,184098.200,409586.400,194989.500,238516.900,210939.100,204162.900,219432.700,0.000
156708.200,184091.100,409589.300,194994.200,238507.400,210932.300,204162.900,219434.400,0.000
156711.000,184091.600,409590.000,194997.600,238509.900,210922.000,204166.600,219440.500,0.000
156712.500,184087.400,409582.800,194997.300,238500.800,210919.600,204161.800,219438.000,0.000
156706.500,184088.600,409572.200,194989.600,238501.400,210922.500,204154.300,219432.400,0.000
156702.700,184088.200,409564.500,194984.500,238510.500,210922.600,204152.800,219431.200,0.000
156706.200,184083.000,409567.100,194988.900,238506.700,210918.000,204156.100,219433.300,0.000
156705.800,184084.300,409562.300,194987.900,238508.700,210911.200,204159.900,219435.500,0.000
156710.500,184090.100,409557.300,194989.600,238506.400,210921.300,204160.800,219435.800,0.000
156714.700,184106.800,409560.000,194992.500,238520.500,210940.100,204165.600,219441.600,0.000
156712.900,184108.900,409557.700,194991.800,238528.200,210942.600,204167.600,219444.800,0.000
156709.500,184096.400,409553.300,194990.000,238510.200,210930.800,204162.700,219439.800,0.000
156704.000,184093.200,409544.100,194984.100,238505.500,210918.600,204159.800,219436.400,0.000
156704.500,184091.300,409537.500,194983.900,238499.000,210917.900,204157.600,219433.900,0.000
156705.200,184098.400,409534.900,194983.800,238505.600,210924.100,204159.000,219435.400,0.000
156708.700,184105.100,409530.100,194984.800,238517.000,210931.500,204163.900,219439.300,0.000
156716.300,184106.600,409529.300,194991.100,238512.900,210938.000,204168.800,219442.500,0.000
156715.300,184109.200,409522.100,194988.800,238515.600,210936.200,204171.400,219443.900,0.000
156714.800,184102.700,409515.300,194987.000,238506.500,210931.700,204168.200,219439.900,0.000
156712.200,184100.300,409512.300,194984.800,238504.300,210925.000,204164.700,219437.300,0.000
156708.800,184097.900,409503.900,194981.700,238505.500,210920.600,204161.400,219436.100,0.000
156711.800,184097.600,409500.800,194985.500,238498.900,210928.000,204161.500,219437.700,0.000
156711.900,184103.900,409495.800,194984.600,238506.700,210934.400,204164.800,219441.100,0.000
156715.500,184101.800,409496.000,194986.400,238504.800,210935.000,204166.400,219441.200,0.000
156720.800,184106.200,409504.000,194990.200,238512.900,210932.900,204172.200,219445.800,0.000
156722.800,184107.000,409501.100,194988.900,238522.300,210930.900,204174.000,219447.400,0.000
156720.200,184097.200,409489.300,194984.000,238510.300,210930.000,204166.200,219439.600,0.000
156711.600,184092.500,409474.200,194974.400,238507.400,210926.200,204160.500,219434.100,0.000
156712.700,184090.500,409473.500,194974.800,238504.000,210927.200,204161.100,219434.200,0.000
156714.500,184097.200,409479.400,194976.400,238511.600,210930.300,204164.500,219436.600,0.000
156713.800,184101.500,409475.700,194975.300,238519.900,210933.900,204165.200,219436.500,0.000
156717.900,184104.000,409477.300,194982.700,238515.600,210940.800,204168.100,219438.700,0.000
156717.000,184111.600,409476.700,194986.800,238522.100,210943.000,204174.300,219444.400,0.000
156717.700,184112.100,409473.800,194989.400,238518.700,210946.700,204175.000,219445.200,0.000
156714.700,184113.200,409467.900,194984.900,238518.300,210948.000,204171.000,219442.200,0.000
156711.000,184108.800,409456.500,194977.500,238518.000,210942.700,204166.200,219438.400,0.000
156714.300,184101.900,409453.800,194978.000,238507.300,210936.200,204164.100,219436.400,0.000
156714.200,184102.900,409447.400,194975.000,238508.600,210928.400,204164.100,219436.200,0.000
156719.000,184104.600,409443.400,194977.500,238507.500,210931.900,204164.800,219436.800,0.000
156721.800,184112.900,409445.600,194980.800,238519.900,210940.000,204168.700,219441.000,0.000
156716.500,184109.100,409437.700,194977.400,238525.600,210935.900,204167.100,219438.100,0.000
156709.000,184094.500,409427.300,194972.300,238506.600,210924.100,204159.000,219427.600,0.000
156700.300,184091.000,409414.300,194963.000,238500.800,210913.800,204153.600,219421.600,0.000
156703.800,184091.300,409409.700,194963.600,238494.600,210915.600,204153.000,219422.400,0.000
156711.200,184101.100,409413.700,194967.900,238500.000,210922.300,204158.300,219429.000,0.000
156712.200,184103.900,409408.400,194965.500,238504.000,210921.300,204158.300,219430.000,0.000
156710.300,184095.000,409400.800,194961.600,238490.200,210916.100,204151.400,219424.400,0.000
156708.000,184095.200,409394.900,194957.900,238495.800,210914.100,204151.500,219426.000,0.000
156716.300,184098.300,409400.700,194967.500,238503.100,210922.700,204159.700,219435.200,0.000
156720.500,184106.000,409408.400,194976.700,238514.800,210929.500,204169.000,219445.400,0.000
156714.400,184105.000,409399.400,194974.000,238519.700,210927.000,204169.100,219446.300,0.000
156710.000,184098.300,409390.500,194971.800,238508.400,210925.600,204164.400,219441.900,0.000
156704.800,184099.700,409382.600,194968.200,238511.500,210925.300,204163.300,219441.300,0.000
156703.300,184093.900,409376.500,194967.300,238503.400,210925.200,204158.800,219437.800,0.000
156702.500,184096.300,409374.900,194964.800,238504.100,210927.800,204156.100,219435.900,0.000
156705.000,184103.600,409374.300,194962.900,238517.500,210933.400,204159.700,219438.500,0.000
156710.500,184101.500,409380.600,194967.400,238515.300,210931.600,204166.000,219441.100,0.000
156710.700,184102.100,409380.600,194966.300,238518.700,210924.500,204173.100,219444.100,0.000
156715.000,184105.500,409374.700,194965.000,238515.800,210934.400,204175.000,219443.800,0.000
156717.300,184117.600,409368.300,194962.000,238522.400,210952.900,204175.400,219444.200,0.000
156714.100,184117.900,409358.400,194957.000,238528.600,210954.800,204173.600,219443.200,0.000
156707.000,184098.500,409350.900,194953.100,238511.500,210935.000,204165.700,219436.300,0.000
156696.200,184085.300,409337.700,194943.600,238503.200,210912.400,204158.300,219430.600,0.000
156699.700,184083.200,409331.300,194943.800,238497.200,210915.000,204157.700,219431.900,0.000
156711.000,184099.300,409338.500,194951.000,238510.300,210935.300,204167.500,219442.200,0.000
156718.700,184111.700,409341.400,194955.400,238527.900,210948.600,204175.400,219449.500,0.000
156724.800,184110.000,409344.100,194960.400,238523.900,210947.400,204175.900,219450.200,0.000
156725.700,184110.800,409340.900,194958.300,238525.400,210938.100,204175.300,219450.300,0.000
156728.000,184107.500,409334.600,194955.500,238515.100,210936.000,204169.800,219445.500,0.000
156725.800,184110.700,409330.600,194950.800,238512.800,210939.600,204164.800,219440.700,0.000
156721.500,184111.500,409323.600,194946.800,238518.700,210941.300,204162.500,219438.000,0.000
156722.500,184104.800,409321.400,194951.300,238512.000,210941.000,204162.300,219437.300,0.000
156716.200,184102.000,409311.100,194948.600,238513.600,210936.100,204162.700,219437.400,0.000
156708.000,184093.500,409297.600,194944.000,238503.800,210933.300,204158.800,219432.600,0.000
156702.400,184093.900,409294.900,194943.500,238505.000,210933.700,204159.700,219433.800,0.000
156701.300,184096.300,409292.900,194946.200,238514.800,210933.200,204163.200,219439.300,0.000
156705.100,184093.900,409292.600,194953.100,238508.100,210933.300,204163.300,219441.400,0.000
156704.900,184099.200,409289.100,194954.300,238513.600,210934.700,204165.200,219443.800,0.000
156705.200,184096.900,409286.100,194954.900,238510.900,210936.900,204164.400,219442.100,0.000
156702.200,184096.200,409286.200,194952.800,238512.000,210935.900,204164.300,219440.400,0.000
156704.100,184100.900,409284.500,194951.900,238521.700,210940.300,204169.800,219443.700,0.000
156713.700,184103.500,409285.700,194955.300,238517.900,210949.600,204174.900,219446.400,0.000
156713.000,184104.000,409276.900,194947.500,238519.400,210948.400,204173.700,219444.500,0.000
156709.000,184091.000,409265.600,194939.300,238507.200,210938.200,204165.200,219436.800,0.000
156703.100,184082.000,409259.500,194932.000,238499.700,210925.500,204158.200,219431.100,0.000
156698.600,184079.600,409248.300,194924.800,238500.900,210920.300,204154.000,219428.700,0.000
156701.100,184080.100,409242.000,194927.000,238493.900,210928.200,204152.600,219429.500,0.000
156699.200,184088.100,409237.100,194928.000,238503.400,210935.300,204155.900,219435.200,0.000
156698.000,184082.800,409236.100,194931.800,238500.700,210930.200,204156.700,219437.100,0.000
156698.200,184077.600,409240.700,194936.100,238497.500,210915.900,204158.800,219438.500,0.000
156700.100,184078.300,409237.600,194936.700,238500.800,210910.800,204161.700,219439.500,0.000
156704.000,184081.000,409230.800,194936.000,238495.900,210925.000,204161.400,219437.200,0.000
156701.300,184090.000,409219.700,194927.100,238509.100,210940.800,204161.500,219435.300,0.000
156701.600,184082.600,409218.000,194924.700,238509.800,210935.000,204161.400,219431.700,0.000
156702.100,184071.000,409227.800,194928.100,238503.900,210908.600,204165.100,219431.100,0.000
156703.200,184071.800,409227.100,194929.500,238503.700,210900.900,204170.900,219434.000,0.000
156708.400,184087.600,409221.200,194931.400,238501.700,210930.300,204174.100,219437.200,0.000
156703.300,184107.200,409210.300,194924.900,238516.500,210957.400,204173.100,219439.600,0.000
156693.900,184097.300,409203.400,194922.900,238511.100,210949.400,204165.900,219436.700,0.000
156685.900,184080.000,409205.000,194929.000,238499.500,210920.900,204163.500,219437.700,0.000
156683.200,184074.200,409198.600,194933.700,238496.600,210909.000,204164.400,219441.700,0.000
156687.800,184077.500,409190.300,194936.200,238488.900,210924.500,204161.400,219441.800,0.000
156690.500,184089.800,409183.900,194931.700,238501.400,210942.000,204159.800,219442.900,0.000
156697.400,184086.900,409186.900,194932.700,238503.300,210941.200,204159.300,219442.400,0.000
156701.200,184079.700,409195.700,194934.400,238501.100,210924.100,204160.500,219441.900,0.000
156697.400,184072.300,409188.800,194927.800,238498.800,210909.600,204157.000,219438.000,0.000
156697.400,184070.400,409178.900,194924.400,238487.500,210915.100,204152.200,219433.100,0.000
156700.200,184087.400,409174.800,194924.100,238501.100,210933.000,204158.200,219437.700,0.000
156704.200,184092.200,409175.400,194927.900,238505.500,210942.600,204165.300,219441.000,0.000
156700.900,184087.200,409175.800,194927.600,238504.800,210935.500,204168.400,219440.900,0.000
156693.600,184079.000,409164.700,194921.100,238506.000,210923.900,204166.300,219438.200,0.000
156691.400,184070.400,409153.900,194918.100,238494.300,210922.400,204160.800,219434.000,0.000
156689.800,184074.600,409146.500,194914.200,238501.600,210928.000,204160.300,219436.000,0.000
156694.000,184069.900,409144.900,194915.500,238500.200,210929.300,204159.000,219436.700,0.000
156698.100,184065.300,409149.000,194917.100,238498.400,210923.800,204157.400,219437.000,0.000
156697.600,184062.700,409144.100,194913.300,238502.000,210918.400,204155.000,219436.600,0.000
156696.600,184055.600,409136.500,194910.800,238489.300,210915.500,204149.400,219431.700,0.000
156691.200,184057.100,409126.700,194905.000,238489.800,210911.900,204146.800,219428.900,0.000
156690.300,184056.900,409121.800,194905.800,238486.200,210912.000,204146.100,219428.400,0.000
156691.100,184065.200,409124.900,194909.700,238488.000,210916.800,204149.000,219431.300,0.000
156688.300,184072.400,409121.100,194908.500,238495.400,210920.200,204150.000,219432.000,0.000
156688.700,184070.600,409120.800,194912.600,238490.500,210922.800,204150.900,219431.700,0.000
156684.600,184073.900,409117.200,194912.900,238496.900,210923.100,204154.300,219433.800,0.000
156678.800,184067.000,409105.100,194908.900,238486.400,210921.300,204148.900,219428.600,0.000
156676.300,184067.600,409098.200,194905.200,238481.000,210923.500,204144.600,219425.900,0.000
156680.100,184074.800,409096.000,194905.000,238490.600,210928.000,204147.400,219429.400,0.000
156689.200,184072.800,409102.000,194911.400,238484.300,210926.100,204149.000,219430.500,0.000
156692.200,184075.700,409103.800,194912.100,238486.300,210919.000,204148.200,219429.900,0.000
156695.800,184076.400,409100.000,194912.100,238480.600,210918.700,204143.300,219425.800,0.000
156701.600,184088.000,409102.600,194914.100,238485.300,210929.300,204144.800,219428.000,0.000
156707.600,184100.900,409106.400,194916.400,238503.000,210939.800,204152.900,219435.400,0.000
156709.000,184092.700,409107.800,194917.800,238496.600,210933.000,204153.600,219434.100,0.000
156701.100,184082.500,409098.900,194910.100,238494.300,210915.700,204149.900,219428.700,0.000
156701.100,184075.400,409089.400,194908.100,238488.800,210912.400,204147.400,219425.500,0.000
156701.900,184078.900,409083.500,194906.400,238490.100,210920.000,204146.500,219425.500,0.000
156696.100,184079.000,409072.300,194899.100,238496.400,210921.200,204143.000,219424.400,0.000
156695.800,184070.200,409071.300,194900.300,238487.000,210915.300,204141.300,219424.500,0.000
156699.800,184077.000,409075.800,194904.200,238495.700,210914.400,204150.200,219432.900,0.000
156708.400,184084.400,409077.600,194910.400,238500.100,210925.900,204159.500,219440.200,0.000
156712.800,184094.200,409079.300,194914.400,238507.300,210942.300,204166.400,219445.600,0.000
156712.500,184100.000,409077.700,194914.000,238520.000,210951.200,204171.000,219449.300,0.000
156712.100,184090.600,409078.800,194915.800,238509.400,210943.800,204168.700,219446.800,0.000
156707.300,184087.700,409075.500,194913.300,238509.300,210931.900,204167.200,219445.900,0.000
156706.500,184085.600,409066.600,194913.300,238505.000,210932.400,204165.700,219444.800,0.000
156700.900,184085.400,409054.400,194908.600,238498.800,210934.600,204159.400,219439.000,0.000
156690.700,184082.700,409038.400,194898.300,238497.600,210927.700,204148.500,219429.000,0.000
156690.200,184076.400,409037.900,194899.500,238487.500,210918.200,204141.800,219423.500,0.000
156691.200,184082.200,409042.600,194901.100,238495.300,210913.800,204144.900,219427.100,0.000
156694.300,184083.400,409041.500,194901.300,238494.000,210918.600,204147.100,219428.000,0.000
156698.100,184089.400,409041.700,194901.500,238494.600,210930.700,204150.600,219430.200,0.000
156698.700,184094.500,409038.200,194899.500,238503.300,210938.100,204152.900,219432.500,0.000
156695.000,184082.000,409034.900,194897.200,238491.000,210929.000,204146.400,219426.000,0.000
156685.300,184073.300,409027.100,194889.200,238489.800,210913.500,204140.800,219420.200,0.000
156686.300,184069.600,409021.300,194890.000,238488.300,210913.900,204141.900,219421.000,0.000
156691.700,184076.100,409022.000,194894.200,238491.500,210925.700,204148.300,219427.100,0.000
156692.200,184081.100,409018.000,194891.600,238500.800,210932.300,204152.200,219430.700,0.000
156695.900,184076.900,409021.000,194894.200,238495.800,210931.900,204153.400,219431.000,0.000
156694.800,184078.400,409020.600,194892.500,238501.300,210928.100,204154.800,219432.100,0.000
156692.000,184070.400,409009.800,194888.000,238492.400,210924.400,204149.400,219427.100,0.000
156689.200,184065.200,409000.400,194882.900,238483.600,210923.800,204143.400,219422.000,0.000
156689.600,184067.700,408994.500,194879.300,238490.300,210927.700,204143.600,219421.600,0.000
156696.500,184065.700,408999.000,194884.600,238486.200,210929.500,204146.100,219421.100,0.000
156696.300,184068.300,408998.300,194884.000,238491.900,210925.400,204147.700,219420.600,0.000
156693.900,184063.400,408989.100,194882.400,238485.900,210922.500,204144.300,219416.700,0.000
156687.400,184060.000,408979.900,194879.800,238477.700,210920.400,204140.100,219412.100,0.000
156677.600,184058.400,408967.900,194873.300,238480.100,210917.300,204137.500,219408.500,0.000
156674.100,184053.200,408966.000,194873.700,238474.300,210915.200,204137.700,219407.500,0.000
156669.800,184058.300,408965.700,194873.100,238484.600,210914.500,204142.500,219412.000,0.000
156671.900,184060.700,408964.400,194878.200,238487.300,210918.900,204145.500,219416.400,0.000
156679.000,184069.400,408970.700,194888.000,238491.500,210928.300,204150.900,219423.200,0.000
156683.900,184078.800,408973.200,194893.100,238503.300,210934.800,204155.800,219428.300,0.000
156688.300,184075.500,408975.800,194899.000,238495.800,210933.700,204154.400,219426.900,0.000
156684.400,184075.800,408971.900,194895.900,238496.900,210927.700,204149.400,219423.600,0.000
156680.500,184068.600,408961.300,194889.700,238488.400,210921.400,204140.100,219415.600,0.000
156677.900,184063.600,408953.800,194884.200,238480.800,210916.600,204134.100,219409.800,0.000
156670.900,184058.100,408941.500,194873.800,238481.700,210910.500,204129.700,219405.300,0.000
156664.700,184043.400,408933.600,194866.200,238467.300,210901.700,204122.200,219397.600,0.000
156664.700,184047.100,408934.700,194863.800,238475.700,210901.500,204124.700,219400.400,0.000
156677.200,184056.000,408941.100,194872.500,238484.600,210913.000,204133.500,219409.000,0.000
156681.800,184059.800,408942.200,194875.600,238484.100,210919.000,204136.100,219410.800,0.000
156677.300,184060.200,408933.500,194870.100,238487.300,210918.300,204135.000,219408.700,0.000
156679.700,184056.500,408932.600,194872.700,238479.200,210918.000,204135.500,219408.900,0.000
156677.700,184059.200,408928.800,194869.900,238482.400,210916.600,204136.300,219410.400,0.000
156675.600,184054.500,408919.300,194865.500,238476.800,210916.000,204133.800,219407.600,0.000
156676.300,184053.700,408915.600,194863.200,238471.500,210916.400,204133.900,219406.700,0.000
156678.600,184058.100,408912.100,194860.700,238476.600,210915.100,204135.500,219408.500,0.000
156688.600,184057.200,408918.100,194868.600,238472.000,210913.400,204136.700,219411.400,0.000
156693.000,184062.000,408922.500,194872.700,238482.500,210910.700,204139.500,219416.800,0.000
156688.800,184054.200,408913.600,194869.100,238477.600,210903.500,204133.800,219412.700,0.000
156677.000,184045.600,408899.800,194861.500,238465.700,210894.600,204124.800,219403.900,0.000
156664.800,184044.600,408884.100,194854.000,238465.900,210890.000,204120.000,219399.100,0.000
156661.500,184041.900,408879.400,194856.400,238457.000,210889.000,204119.600,219396.900,0.000
156659.700,184051.300,408879.600,194857.600,238467.100,210892.300,204125.900,219400.200,0.000
156662.400,184055.700,408878.400,194859.600,238471.000,210897.100,204129.400,219401.500,0.000
156665.300,184058.200,408879.900,194862.000,238470.000,210899.300,204129.400,219401.900,0.000
156666.600,184062.400,408877.800,194862.200,238479.100,210901.500,204131.000,219404.700,0.000
156668.700,184056.800,408875.900,194864.500,238472.500,210901.400,204131.100,219404.600,0.000
156662.500,184055.400,408867.000,194857.200,238475.600,210897.500,204130.900,219403.600,0.000
156661.400,184050.000,408857.100,194853.600,238473.700,210897.500,204132.400,219404.200,0.000
156664.700,184048.300,408853.300,194855.900,238471.900,210900.400,204136.500,219408.600,0.000
156663.600,184048.600,408844.100,194852.900,238477.500,210899.800,204136.500,219411.600,0.000
156666.600,184043.300,408842.300,194854.300,238469.300,210897.000,204133.500,219411.500,0.000
156669.000,184047.400,408844.100,194853.700,238474.900,210894.700,204134.600,219413.600,0.000
156671.500,184043.600,408841.800,194852.700,238469.800,210890.200,204131.700,219410.300,0.000
156671.100,184041.000,408840.000,194849.200,238460.300,210885.100,204125.900,219403.700,0.000
156666.100,184044.000,408831.600,194839.800,238463.000,210882.800,204121.100,219397.200,0.000
156666.600,184042.300,408828.500,194838.600,238457.700,210884.600,204119.700,219392.000,0.000
156668.500,184051.400,408828.800,194840.300,238473.400,210891.900,204126.600,219395.000,0.000
156671.300,184051.800,408824.000,194843.500,238479.200,210896.700,204130.500,219396.800,0.000
156671.500,184049.800,408820.600,194845.200,238474.500,210895.600,204130.400,219396.700,0.000
156670.900,184053.700,408817.700,194845.000,238480.300,210896.100,204131.500,219398.500,0.000
156675.100,184051.400,408822.100,194851.500,238474.300,210898.300,204131.500,219399.600,0.000
156668.700,184051.300,408819.100,194848.000,238475.400,210895.500,204129.000,219399.500,0.000
156657.700,184041.100,408805.900,194838.700,238464.100,210887.400,204120.600,219393.700,0.000
156654.000,184039.800,408801.500,194836.000,238457.900,210885.100,204118.500,219393.100,0.000
156657.100,184050.500,408799.500,194836.500,238471.000,210891.500,204124.300,219399.100,0.000
156661.400,184049.900,408798.700,194839.700,238467.300,210894.000,204126.300,219399.700,0.000
156658.900,184052.600,408795.500,194836.700,238473.000,210892.700,204127.900,219399.600,0.000
156662.100,184053.000,408793.600,194837.800,238474.900,210897.000,204131.200,219401.100,0.000
156668.300,184057.000,408797.600,194842.100,238476.800,210906.300,204135.600,219404.600,0.000
156671.800,184064.600,408798.800,194843.300,238491.800,210915.400,204140.000,219409.500,0.000
156677.000,184061.200,408802.800,194848.800,238489.500,210915.700,204141.000,219410.500,0.000
156671.400,184059.300,408796.600,194843.600,238489.700,210905.900,204137.600,219405.700,0.000
156665.000,184052.000,408781.600,194835.200,238479.700,210898.000,204130.000,219395.800,0.000
156662.500,184049.300,408773.700,194830.500,238470.900,210897.500,204125.500,219389.300,0.000
156660.400,184051.500,408766.000,194825.700,238476.600,210898.900,204123.500,219387.700,0.000
156665.400,184047.300,408767.500,194831.200,238471.500,210898.700,204123.000,219389.200,0.000
156667.400,184050.900,408769.700,194834.000,238479.300,210898.100,204126.900,219395.000,0.000
156665.700,184045.300,408763.700,194831.900,238475.800,210894.500,204126.300,219395.300,0.000
156659.400,184037.700,408757.200,194827.100,238465.800,210888.700,204122.700,219392.300,0.000
156651.400,184037.000,408746.800,194820.000,238468.200,210885.900,204120.200,219391.300,0.000
156652.400,184033.400,408744.300,194822.000,238459.400,210886.000,204118.200,219391.300,0.000
156651.500,184038.500,408743.500,194820.600,238463.900,210886.300,204117.600,219392.900,0.000
156650.300,184036.200,408739.200,194818.500,238461.700,210883.700,204113.900,219390.300,0.000
156651.300,184035.400,408740.800,194820.500,238459.500,210882.000,204113.500,219389.800,0.000
156654.000,184043.300,408741.300,194822.500,238473.100,210886.600,204119.400,219394.600,0.000
156662.300,184045.600,408745.800,194830.400,238473.500,210894.500,204125.200,219399.000,0.000
156663.000,184050.900,408744.800,194831.300,238482.800,210899.300,204127.900,219402.300,0.000
156661.500,184044.600,408736.400,194830.300,238481.200,210897.200,204124.100,219399.800,0.000
156660.300,184037.100,408732.700,194830.800,238471.900,210890.800,204120.000,219395.700,0.000
156654.400,184034.000,408723.700,194824.300,238470.700,210885.300,204115.900,219391.300,0.000
156654.900,184028.800,408720.300,194822.800,238459.600,210885.700,204112.700,219388.100,0.000
156660.300,184041.100,408724.500,194823.200,238471.300,210894.300,204118.700,219394.100,0.000
156669.800,184048.900,408729.200,194827.000,238479.600,210900.400,204125.900,219399.600,0.000
156672.700,184046.500,408730.500,194827.100,238474.700,210894.800,204126.400,219398.300,0.000
156665.800,184042.700,408719.400,194816.800,238474.300,210886.600,204121.500,219393.000,0.000
156664.800,184038.300,408715.300,194814.700,238465.600,210887.900,204117.900,219388.900,0.000
156664.000,184047.600,408716.600,194815.600,238476.100,210896.700,204121.200,219391.900,0.000
156662.300,184046.200,408713.600,194817.600,238478.400,210898.600,204122.600,219394.000,0.000
156658.200,184039.500,408710.900,194819.200,238471.500,210892.600,204123.400,219395.400,0.000
156652.000,184039.300,408701.300,194814.800,238474.800,210889.600,204125.200,219397.000,0.000
156649.300,184032.800,408692.900,194811.400,238464.000,210889.700,204121.200,219392.700,0.000
156643.200,184033.400,408685.500,194803.000,238468.100,210890.100,204116.700,219388.700,0.000
156642.800,184029.200,408682.100,194801.800,238471.600,210887.800,204116.100,219389.000,0.000
156645.500,184024.400,408686.300,194807.200,238469.500,210882.200,204120.300,219393.400,0.000
156642.400,184024.000,408681.800,194805.300,238473.800,210879.200,204123.300,219395.600,0.000
156641.800,184019.300,408676.800,194805.500,238464.000,210882.600,204121.000,219392.400,0.000
156639.500,184026.200,408672.400,194802.600,238471.000,210890.200,204119.700,219391.900,0.000
156640.300,184027.600,408669.700,194802.900,238474.000,210892.900,204119.100,219391.400,0.000
156643.300,184026.000,408673.300,194805.800,238467.500,210888.000,204119.500,219390.700,0.000
156645.900,184030.500,408671.300,194803.600,238471.300,210885.700,204121.100,219391.600,0.000
156653.200,184030.500,408671.100,194805.000,238464.700,210889.800,204121.100,219390.700,0.000
156651.500,184034.200,408666.700,194799.100,238468.700,210891.600,204118.800,219387.700,0.000
156648.200,184028.200,408658.800,194794.600,238464.100,210885.300,204114.000,219382.400,0.000
156649.200,184024.300,408658.400,194797.100,238456.000,210877.700,204113.400,219381.400,0.000
156647.800,184028.500,408651.200,194794.200,238461.100,210874.600,204114.700,219382.200,0.000
156649.300,184027.600,408645.700,194793.800,238455.400,210877.800,204114.700,219381.000,0.000
156645.700,184034.100,408640.300,194788.200,238462.400,210884.300,204115.700,219382.800,0.000
156642.400,184031.700,408631.900,194782.500,238461.000,210884.900,204113.300,219383.500,0.000
156644.400,184029.900,408632.700,194784.200,238456.700,210883.500,204113.900,219387.000,0.000
156644.300,184034.300,408629.600,194783.400,238465.400,210884.200,204116.000,219390.600,0.000
156645.600,184030.000,408626.800,194785.300,238457.200,210884.800,204113.600,219388.600,0.000
156641.600,184032.200,408623.800,194782.600,238459.500,210885.200,204112.200,219387.500,0.000
156639.100,184027.400,408618.800,194781.500,238456.900,210882.600,204110.600,219385.800,0.000
156643.600,184027.100,408622.200,194787.600,238453.800,210883.400,204114.000,219387.600,0.000
156645.800,184035.500,408620.100,194788.600,238465.300,210888.400,204119.400,219391.200,0.000
156645.000,184031.400,408615.400,194787.200,238457.900,210888.700,204117.500,219388.500,0.000
156639.700,184033.200,408611.300,194780.100,238460.800,210887.400,204114.500,219386.000,0.000
156641.600,184032.900,408609.300,194777.300,238463.000,210886.700,204112.900,219383.900,0.000
156649.400,184033.800,408614.600,194781.900,238461.100,210886.300,204114.300,219384.700,0.000
156651.000,184036.900,408612.400,194781.000,238466.200,210884.000,204115.000,219385.700,0.000
156650.800,184027.300,408608.000,194779.600,238453.300,210877.200,204110.400,219380.000,0.000
156647.600,184025.800,408601.500,194774.400,238454.300,210873.100,204108.200,219376.600,0.000
156647.900,184022.600,408592.600,194772.800,238453.900,210872.700,204108.200,219376.500,0.000
156649.000,184021.500,408591.000,194773.700,238449.200,210873.300,204110.000,219378.400,0.000
156643.600,184024.200,408585.400,194766.900,238455.400,210871.800,204109.800,219378.800,0.000
156640.800,184016.200,408581.500,194764.700,238445.500,210866.600,204105.100,219375.500,0.000
156637.600,184016.800,408578.600,194763.700,238446.700,210864.600,204103.900,219376.900,0.000
156634.800,184012.400,408571.600,194764.400,238443.000,210863.000,204101.500,219377.000,0.000
156630.700,184006.800,408567.200,194765.100,238434.300,210860.600,204096.800,219374.700,0.000
156624.000,184008.900,408560.100,194760.800,238441.600,210860.400,204094.600,219375.500,0.000
156622.900,184003.100,408558.200,194762.400,238435.400,210859.000,204093.300,219375.700,0.000
156620.500,184006.300,408557.500,194760.500,238440.100,210858.900,204094.900,219376.400,0.000
156622.200,184008.400,408555.600,194758.600,238444.000,210861.600,204096.800,219375.500,0.000
156626.700,184009.700,408557.800,194758.200,238442.600,210864.100,204097.000,219374.000,0.000
156626.900,184013.400,408553.000,194752.200,238450.400,210864.100,204095.900,219372.500,0.000
156629.700,184007.400,408551.600,194753.200,238441.800,210861.300,204094.400,219370.000,0.000
156628.500,184011.100,408552.400,194753.700,238445.500,210862.300,204097.300,219371.900,0.000
156624.800,184010.100,408546.200,194752.200,238445.600,210864.500,204097.800,219370.900,0.000
156619.200,184005.200,408539.900,194750.300,238438.600,210865.100,204095.400,219367.200,0.000
156612.700,184005.500,408530.900,194746.000,238445.200,210866.000,204095.300,219367.400,0.000
156613.700,183998.700,408528.600,194749.700,238438.800,210864.500,204095.300,219368.600,0.000
156616.400,184003.600,408530.200,194752.800,238445.500,210865.600,204099.500,219374.300,0.000
156621.400,184005.100,408527.500,194755.200,238447.500,210866.100,204101.200,219377.400,0.000
156622.600,183999.800,408522.700,194752.600,238437.800,210860.000,204094.800,219372.500,0.000
156622.400,184000.800,408514.300,194745.100,238442.500,210855.800,204090.400,219368.000,0.000
156634.300,184002.300,408519.300,194752.600,238442.000,210861.100,204095.100,219370.000,0.000
156639.300,184011.400,408525.300,194757.200,238452.800,210868.700,204101.400,219374.000,0.000
156633.400,184008.500,408518.300,194752.300,238452.900,210866.700,204097.600,219369.200,0.000
156627.800,184004.200,408514.400,194749.100,238444.900,210862.000,204093.200,219363.800,0.000
156623.000,184008.500,408509.100,194744.800,238450.400,210861.800,204093.300,219363.000,0.000
156623.500,184005.000,408506.300,194746.200,238441.300,210863.000,204091.800,219360.200,0.000
156621.400,184009.700,408502.500,194744.200,238443.000,210865.600,204090.800,219359.100,0.000
156623.000,184011.300,408498.300,194744.100,238443.900,210866.500,204090.400,219358.900,0.000
156629.200,184012.200,408503.700,194750.500,238442.700,210867.100,204094.300,219362.700,0.000
156627.900,184015.400,408501.300,194750.400,238452.700,210867.400,204097.700,219368.000,0.000
156626.200,184008.300,408497.000,194751.400,238446.000,210867.100,204095.900,219369.300,0.000
156624.200,184012.200,408495.200,194750.300,238451.800,210871.600,204097.600,219373.100,0.000
156623.600,184011.000,408491.000,194749.800,238453.200,210872.900,204098.500,219374.600,0.000
156620.900,184003.400,408488.500,194748.900,238444.000,210868.100,204096.100,219371.700,0.000
156615.800,184002.700,408480.200,194742.000,238447.500,210864.100,204094.000,219369.000,0.000
156617.900,183997.200,408474.800,194740.700,238437.300,210860.900,204090.100,219364.900,0.000
156614.900,183996.500,408467.800,194734.500,238435.500,210857.100,204085.100,219361.100,0.000
156611.200,183989.100,408458.600,194729.900,238431.500,210851.600,204079.600,219357.000,0.000
156614.200,183986.600,408460.900,194736.000,238425.500,210850.900,204080.800,219358.200,0.000
156618.500,183997.600,408464.200,194741.800,238438.400,210857.400,204089.100,219366.200,0.000
156626.100,184000.900,408470.300,194750.300,238441.500,210863.300,204094.900,219372.400,0.000
156625.000,184005.200,408470.800,194747.700,238450.300,210864.200,204095.200,219373.900,0.000
156617.900,183997.600,408460.800,194737.400,238447.000,210856.400,204088.200,219367.500,0.000
156613.500,183988.800,408456.300,194732.700,238436.100,210849.100,204082.500,219362.500,0.000
156608.800,183988.900,408449.600,194728.300,238441.700,210847.500,204080.600,219361.800,0.000
156611.000,183984.400,408448.900,194732.700,238438.000,210850.600,204081.500,219362.700,0.000
156615.500,183995.000,408454.700,194737.500,238451.400,210862.000,204090.200,219370.500,0.000
156618.000,183999.700,408452.900,194737.400,238458.500,210868.800,204095.000,219374.000,0.000
156616.600,183996.300,408449.000,194734.600,238449.600,210867.400,204091.700,219370.500,0.000
156609.400,183996.500,408440.000,194726.300,238450.200,210864.900,204087.000,219366.000,0.000
156610.200,183990.500,408437.800,194727.200,238440.200,210863.500,204085.300,219362.300,0.000
156615.000,183997.900,408442.100,194731.500,238447.100,210867.000,204090.700,219366.500,0.000
156618.000,184000.400,408442.400,194734.100,238453.800,210868.800,204093.900,219370.000,0.000
156617.000,183997.500,408444.700,194735.200,238452.000,210869.100,204093.600,219370.000,0.000
156609.000,183996.700,408437.400,194727.400,238457.100,210865.400,204090.500,219367.300,0.000
156606.100,183984.900,408429.300,194724.000,238441.700,210855.500,204083.500,219361.300,0.000
156608.000,183988.000,408428.300,194723.900,238440.700,210852.800,204083.400,219362.800,0.000
156611.600,183992.200,408426.900,194724.900,238443.700,210854.700,204085.400,219365.500,0.000
156611.700,183991.100,408427.000,194725.800,238440.000,210857.100,204085.400,219365.600,0.000
156606.600,183993.000,408420.200,194720.600,238447.600,210858.800,204085.600,219365.900,0.000
156606.600,183984.500,408416.500,194721.700,238439.100,210855.400,204083.900,219363.800,0.000
156608.200,183987.300,408417.600,194723.800,238443.000,210856.100,204086.400,219365.200,0.000
156611.400,183989.600,408414.100,194723.800,238446.200,210859.100,204087.600,219365.000,0.000
156614.500,183989.400,408411.900,194723.000,238441.000,210862.500,204086.000,219362.700,0.000
156612.300,183993.500,408404.800,194716.700,238447.900,210864.700,204085.900,219361.600,0.000
156609.500,183982.800,408397.700,194714.200,238434.100,210856.600,204081.800,219355.000,0.000
156602.200,183977.700,408391.000,194709.900,238427.300,210846.700,204077.100,219348.700,0.000
156601.100,183976.500,408387.500,194710.600,238429.000,210845.300,204076.500,219347.700,0.000
156609.300,183982.200,408395.700,194719.800,238433.700,210854.400,204082.500,219353.300,0.000
156610.700,183989.100,408394.200,194718.600,238445.300,210857.900,204085.600,219356.700,0.000
156607.800,183975.900,408385.800,194713.000,238430.500,210846.500,204078.000,219350.400,0.000
156603.200,183971.100,408379.500,194705.700,238426.000,210838.800,204072.800,219346.400,0.000
156603.000,183971.000,408374.100,194703.400,238427.300,210840.800,204072.600,219345.800,0.000
156610.100,183978.400,408379.800,194711.300,238430.300,210853.400,204078.800,219351.200,0.000
156611.000,183990.100,408380.100,194712.600,238445.400,210862.300,204084.500,219356.700,0.000
156604.900,183979.700,408373.500,194709.000,238432.500,210853.500,204078.300,219350.500,0.000
156595.900,183975.600,408368.300,194703.300,238427.300,210846.500,204072.800,219346.500,0.000
156593.300,183974.800,408363.300,194703.500,238428.800,210847.600,204072.200,219347.600,0.000
156597.700,183976.600,408365.900,194711.300,238428.600,210853.800,204075.800,219351.100,0.000
156598.800,183983.000,408364.300,194713.400,238440.800,210857.800,204080.200,219354.300,0.000
156599.400,183973.200,408359.300,194714.100,238430.900,210851.100,204077.400,219350.000,0.000
156595.800,183969.700,408350.800,194708.500,238426.000,210844.100,204073.300,219345.800,0.000
156591.600,183963.100,408338.300,194701.200,238419.200,210836.500,204067.500,219341.700,0.000
156590.900,183956.300,408335.700,194699.300,238407.700,210831.300,204062.900,219339.700,0.000
156591.700,183963.300,408336.700,194698.200,238417.800,210834.000,204065.200,219344.500,0.000
156599.400,183967.100,408344.400,194706.800,238421.200,210841.300,204071.300,219351.000,0.000
156600.900,183974.500,408349.100,194710.200,238431.400,210848.100,204076.900,219355.100,0.000
156596.300,183969.300,408341.000,194706.200,238429.900,210843.600,204074.200,219350.100,0.000
156594.500,183961.800,408336.400,194705.400,238418.100,210837.200,204069.500,219344.100,0.000
156589.900,183963.400,408327.600,194699.000,238422.000,210835.300,204066.200,219341.300,0.000
156586.300,183953.400,408318.000,194693.700,238409.600,210831.200,204059.000,219334.600,0.000
156584.100,183953.700,408314.200,194689.700,238408.400,210832.100,204057.300,219332.700,0.000
156586.200,183955.200,408313.100,194690.100,238411.500,210833.900,204060.600,219334.500,0.000
156590.200,183955.300,408319.800,194694.400,238408.100,210834.700,204064.100,219336.300,0.000
156589.800,183963.200,408322.600,194693.700,238418.300,210837.500,204068.200,219340.800,0.000
156591.500,183961.200,408323.500,194696.900,238413.100,210839.700,204069.100,219343.300,0.000
156587.500,183964.100,408319.800,194694.500,238416.400,210842.600,204068.700,219344.800,0.000
156582.500,183962.700,408310.100,194690.600,238418.800,210841.100,204066.600,219344.500,0.000
156583.700,183960.800,408308.700,194694.100,238413.600,210839.300,204065.800,219345.300,0.000
156583.100,183966.000,408304.000,194692.400,238422.900,210839.200,204065.400,219346.000,0.000
156587.600,183962.900,408301.900,194693.600,238419.500,210838.800,204063.500,219342.800,0.000
156593.800,183970.800,408306.200,194697.100,238426.900,210845.000,204066.900,219345.400,0.000
156596.500,183972.500,408305.900,194699.700,238430.500,210845.700,204068.600,219347.100,0.000
156594.100,183966.100,408304.900,194700.000,238420.100,210838.600,204064.600,219342.200,0.000
156588.000,183967.400,408298.200,194693.700,238423.500,210833.400,204061.000,219338.000,0.000
156590.200,183963.200,408295.300,194694.600,238416.600,210832.000,204059.400,219336.600,0.000
156591.600,183968.600,408294.900,194694.200,238419.900,210836.200,204061.500,219340.400,0.000
156590.700,183969.800,408288.800,194690.000,238422.000,210837.700,204062.300,219341.600,0.000
156592.100,183967.300,408287.600,194688.700,238415.300,210838.300,204062.100,219339.300,0.000
156591.500,183971.500,408284.600,194684.700,238422.600,210839.700,204063.700,219338.000,0.000
156592.700,183963.800,408282.600,194685.600,238414.400,210835.700,204061.300,219333.800,0.000
156588.300,183961.200,408278.300,194681.500,238412.500,210832.200,204056.600,219329.400,0.000
156581.800,183954.700,408266.900,194674.700,238409.300,210827.100,204049.800,219322.400,0.000
156578.100,183945.100,408259.300,194672.600,238396.400,210822.500,204043.800,219315.500,0.000
156573.000,183944.800,408249.200,194667.300,238397.400,210820.900,204042.100,219314.900,0.000
156574.200,183941.000,408245.800,194668.300,238389.800,210821.300,204042.900,219316.800,0.000
156574.800,183948.800,408247.900,194669.000,238395.200,210826.500,204046.400,219321.400,0.000
156572.800,183949.500,408243.800,194666.700,238396.800,210824.800,204045.000,219321.200,0.000
156572.500,183943.900,408243.400,194667.200,238388.500,210819.900,204040.900,219318.800,0.000
156577.500,183953.900,408247.800,194672.000,238405.300,210824.100,204047.700,219327.000,0.000
156591.900,183962.300,408260.800,194688.000,238414.400,210832.800,204060.100,219339.200,0.000
156592.600,183969.600,408264.700,194689.800,238420.500,210836.800,204063.800,219341.400,0.000
156580.600,183962.400,408251.700,194677.700,238416.000,210830.200,204056.800,219331.900,0.000
156575.600,183954.600,408246.700,194674.300,238408.100,210828.500,204054.000,219327.300,0.000
156574.100,183959.600,408243.300,194673.700,238419.600,210833.600,204058.400,219331.100,0.000
156575.100,183952.400,408238.600,194676.800,238412.700,210831.700,204058.200,219329.700,0.000
156573.500,183949.700,408233.600,194675.300,238412.300,210829.100,204055.900,219326.800,0.000
156577.700,183948.000,408229.600,194675.800,238418.800,210828.900,204056.700,219327.200,0.000
156590.800,183950.900,408237.600,194684.700,238421.600,210834.100,204061.900,219331.700,0.000
156592.400,183957.500,408235.600,194680.800,238431.100,210834.600,204061.200,219330.300,0.000
156587.800,183947.500,408226.000,194673.600,238416.600,210825.400,204051.400,219318.900,0.000
156586.800,183950.300,408224.400,194672.500,238414.900,210825.100,204050.300,219317.100,0.000
156591.000,183956.200,408225.700,194676.800,238421.500,210828.000,204055.500,219322.400,0.000
156593.300,183957.200,408226.800,194680.000,238416.900,210829.400,204057.600,219324.500,0.000
156584.700,183961.800,408216.000,194672.300,238421.700,210829.200,204056.800,219324.000,0.000
156576.800,183954.100,408203.500,194667.900,238409.400,210823.200,204051.800,219319.500,0.000
156568.500,183951.800,408193.300,194662.700,238403.100,210817.800,204045.900,219315.400,0.000
156564.400,183946.800,408183.200,194658.100,238400.100,210810.900,204040.700,219311.900,0.000
156566.900,183940.600,408182.900,194659.400,238390.500,210805.500,204036.900,219309.200,0.000
156564.300,183940.000,408178.800,194654.300,238393.800,210800.000,204033.000,219307.000,0.000
156566.700,183931.500,408177.800,194655.900,238386.500,210795.400,204031.200,219305.900,0.000
156571.700,183938.200,408182.400,194660.000,238393.400,210802.700,204038.400,219311.900,0.000
156568.200,183940.600,408175.800,194656.500,238396.900,210805.000,204041.700,219311.900,0.000
156560.200,183934.600,408167.700,194651.700,238385.700,210800.900,204038.400,219305.200,0.000
156553.400,183940.200,408159.900,194646.200,238393.900,210802.800,204039.200,219304.200,0.000
156553.700,183939.000,408156.000,194647.300,238393.200,210806.400,204040.300,219303.700,0.000
156555.700,183944.900,408156.800,194648.300,238401.300,210812.900,204044.600,219307.100,0.000
156560.900,183947.300,408157.700,194650.500,238409.800,210814.700,204050.800,219313.000,0.000
156566.400,183943.500,408161.900,194654.000,238404.800,210812.800,204053.500,219316.100,0.000
156564.300,183946.900,408158.100,194648.500,238412.600,210813.200,204054.700,219318.300,0.000
156567.300,183944.400,408156.100,194649.500,238410.000,210815.900,204056.600,219320.500,0.000
156571.400,183951.800,408158.800,194652.700,238417.500,210823.100,204062.000,219326.800,0.000
156571.800,183952.200,408154.000,194652.500,238422.600,210821.500,204063.700,219330.000,0.000
156570.800,183942.700,408149.000,194652.400,238412.600,210812.900,204059.900,219327.800,0.000
156566.100,183939.500,408138.700,194646.200,238414.000,210804.800,204055.500,219324.700,0.000
156566.300,183929.600,408130.400,194644.700,238401.800,210797.200,204049.200,219319.000,0.000
156565.100,183931.000,408125.300,194641.000,238398.300,210795.500,204044.000,219314.900,0.000
156559.800,183930.000,408115.500,194633.800,238397.100,210790.700,204038.800,219310.300,0.000
156558.000,183927.000,408114.100,194633.900,238390.600,210789.900,204038.400,219308.700,0.000
156555.500,183934.600,408110.900,194631.200,238400.900,210796.400,204043.700,219312.100,0.000
156553.700,183929.000,408102.000,194627.700,238392.600,210797.900,204042.000,219308.100,0.000
156547.600,183927.200,408091.800,194620.700,238389.100,210799.300,204037.500,219302.100,0.000
156541.000,183922.800,408080.800,194614.500,238388.000,210796.000,204034.500,219298.100,0.000
156540.300,183917.200,408078.800,194614.600,238377.300,210792.300,204033.400,219296.200,0.000
156538.600,183922.900,408073.700,194609.500,238381.300,210792.700,204033.300,219295.600,0.000
156543.000,183923.300,408073.200,194611.400,238377.300,210795.100,204032.500,219294.000,0.000
156550.000,183934.500,408082.700,194619.000,238387.900,210804.500,204038.800,219300.100,0.000
156552.300,183937.700,408085.300,194623.700,238397.000,210805.300,204043.400,219304.600,0.000
156553.000,183930.700,408086.400,194628.800,238388.700,210799.800,204043.400,219304.400,0.000
156549.900,183932.800,408081.800,194628.400,238394.600,210798.100,204044.900,219306.300,0.000
156546.500,183924.400,408074.200,194626.100,238387.000,210794.000,204041.100,219302.300,0.000
156540.900,183923.100,408067.000,194617.600,238385.800,210791.700,204035.900,219297.900,0.000
156539.600,183924.800,408059.800,194610.700,238389.200,210787.900,204033.000,219296.500,0.000
156545.100,183927.100,408062.700,194613.900,238385.000,210787.700,204033.400,219297.900,0.000
156546.700,183937.200,408064.500,194615.100,238395.800,210793.500,204037.900,219303.700,0.000
156546.600,183932.500,408064.200,194617.200,238390.800,210796.700,204039.000,219305.100,0.000
156542.000,183932.700,408063.200,194614.600,238392.100,210802.100,204039.300,219304.700,0.000
156538.900,183933.400,408057.600,194612.000,238399.200,210806.300,204040.700,219305.000,0.000
156538.900,183927.500,408054.200,194612.900,238392.100,210806.100,204038.600,219302.400,0.000
156531.100,183922.800,408042.900,194603.700,238391.600,210797.700,204031.000,219295.700,0.000
156528.800,183911.500,408034.900,194599.400,238379.000,210786.400,204022.400,219287.600,0.000
156533.500,183917.800,408036.000,194599.500,238379.800,210788.500,204022.300,219286.900,0.000
156539.200,183923.500,408033.300,194599.200,238385.200,210790.200,204024.300,219288.300,0.000
156548.000,183923.500,408036.000,194605.800,238379.700,210790.400,204027.000,219291.500,0.000
156551.400,183932.900,408036.300,194608.700,238388.000,210792.800,204031.500,219297.000,0.000
156550.000,183929.700,408033.100,194609.700,238380.700,210791.100,204029.200,219294.400,0.000
156544.300,183930.200,408031.100,194607.000,238379.000,210792.800,204026.600,219291.800,0.000
156539.500,183927.500,408024.800,194603.600,238380.900,210791.000,204024.500,219290.800,0.000
156537.300,183919.500,408020.700,194602.100,238373.100,210786.200,204019.900,219286.900,0.000
156530.800,183919.300,408011.200,194593.300,238379.700,210781.000,204017.100,219283.800,0.000
156529.300,183911.300,408004.300,194590.600,238371.500,210773.500,204015.000,219281.100,0.000
156530.900,183915.400,408005.500,194590.300,238371.400,210774.400,204016.600,219283.700,0.000
156533.600,183920.900,408005.500,194589.500,238378.000,210776.600,204018.300,219286.400,0.000
156538.300,183921.000,408008.400,194592.000,238372.000,210778.000,204016.500,219284.400,0.000
156535.400,183925.300,408004.700,194587.200,238375.600,210776.400,204013.500,219281.600,0.000
156534.500,183918.600,408001.100,194586.000,238366.500,210770.600,204010.300,219278.300,0.000
156539.300,183923.500,408003.900,194588.800,238369.300,210775.300,204014.700,219282.000,0.000
156544.900,183927.500,408001.800,194590.400,238375.700,210779.200,204019.800,219286.000,0.000
156547.000,183922.100,408000.400,194592.400,238366.500,210778.800,204018.900,219285.000,0.000
156544.400,183927.000,407998.400,194590.900,238375.500,210782.900,204021.100,219287.600,0.000
156547.000,183926.900,408000.500,194595.000,238376.600,210786.800,204024.700,219291.000,0.000
156546.000,183930.900,408002.000,194594.800,238380.200,210789.300,204027.100,219293.300,0.000
156538.800,183926.800,407992.000,194587.700,238381.600,210784.200,204025.000,219290.400,0.000
156533.700,183916.900,407983.400,194582.500,238369.700,210779.200,204019.300,219283.000,0.000
156531.000,183922.700,407976.400,194577.100,238376.200,210781.800,204018.700,219281.200,0.000
156537.100,183923.600,407975.900,194581.800,238375.200,210785.400,204020.600,219282.000,0.000
156540.000,183926.600,407977.800,194584.700,238376.900,210788.200,204021.900,219282.500,0.000
156536.000,183922.900,407971.500,194580.500,238377.400,210782.700,204019.700,219280.000,0.000
156533.000,183913.300,407967.500,194578.100,238364.600,210776.100,204015.600,219276.500,0.000
156527.800,183912.000,407959.900,194571.900,238366.400,210772.700,204013.700,219275.700,0.000
156527.700,183901.600,407953.300,194570.700,238358.800,210767.200,204009.700,219271.500,0.000
156528.100,183900.100,407951.500,194570.600,238360.300,210766.400,204007.300,219269.300,0.000
156529.100,183902.600,407948.800,194572.700,238369.400,210768.700,204010.300,219272.900,0.000
156532.100,183902.600,407950.300,194579.200,238366.500,210773.900,204014.200,219277.300,0.000
156523.500,183903.300,407939.800,194572.400,238368.700,210772.300,204011.700,219276.100,0.000
156515.600,183891.400,407926.200,194566.400,238355.200,210763.200,204004.300,219269.800,0.000
156515.200,183894.400,407924.500,194567.600,238355.200,210765.000,204006.300,219273.000,0.000
156514.800,183897.800,407920.900,194567.300,238360.600,210765.400,204009.700,219277.300,0.000
156512.700,183891.600,407917.400,194565.300,238349.000,210760.200,204006.300,219273.300,0.000
156509.900,183896.500,407914.400,194559.500,238355.000,210759.600,204006.300,219273.200,0.000
156516.100,183899.000,407918.400,194561.600,238356.400,210764.900,204010.800,219278.200,0.000
156518.600,183905.500,407922.200,194561.100,238359.500,210771.500,204014.300,219282.200,0.000
156512.000,183902.200,407913.300,194554.200,238359.400,210766.600,204011.000,219279.000,0.000
156511.200,183895.300,407911.500,194555.200,238351.500,210763.700,204009.100,219276.900,0.000
156511.100,183901.300,407911.100,194554.600,238363.600,210767.600,204013.500,219281.100,0.000
156512.400,183898.500,407908.900,194556.600,238363.300,210769.500,204015.600,219282.100,0.000
156510.500,183900.100,407905.300,194556.300,238362.800,210772.800,204015.500,219281.100,0.000
156507.800,183901.600,407897.700,194553.700,238365.500,210772.300,204014.300,219279.500,0.000
156515.700,183906.000,407903.000,194561.600,238364.400,210777.400,204018.900,219283.400,0.000
156519.800,183919.300,407905.200,194563.700,238377.700,210783.100,204025.700,219289.600,0.000
156517.000,183914.000,407897.200,194559.500,238370.500,210777.400,204021.300,219284.900,0.000
156507.500,183907.000,407887.100,194549.500,238361.900,210769.500,204011.700,219275.800,0.000
156497.100,183897.400,407873.500,194537.600,238355.900,210759.400,204002.900,219265.700,0.000
156499.300,183891.700,407873.700,194537.700,238345.700,210758.900,204000.900,219261.900,0.000
156507.500,183904.800,407881.200,194542.700,238361.000,210769.700,204010.000,219271.100,0.000
156516.600,183907.700,407887.100,194552.300,238364.700,210776.500,204017.700,219279.900,0.000
156517.500,183909.100,407887.700,194556.200,238364.900,210780.300,204019.500,219284.400,0.000
156512.000,183904.200,407878.200,194551.400,238364.600,210775.300,204014.700,219282.200,0.000
156510.700,183894.300,407874.400,194550.500,238354.800,210770.200,204008.700,219277.200,0.000
156510.000,183897.400,407873.200,194550.500,238364.900,210771.400,204010.000,219278.400,0.000
156516.500,183896.800,407875.400,194557.000,238364.400,210774.200,204013.100,219280.700,0.000
156522.800,183902.700,407879.400,194560.100,238364.400,210780.000,204015.100,219282.500,0.000
156519.100,183900.600,407872.100,194552.500,238363.900,210775.200,204009.900,219277.100,0.000
156512.800,183889.100,407865.600,194545.600,238349.300,210766.200,204000.600,219267.600,0.000
156504.200,183887.700,407856.500,194536.200,238349.100,210760.600,203995.100,219262.300,0.000
156505.300,183885.300,407852.400,194537.800,238344.000,210759.300,203994.400,219261.400,0.000
156514.500,183898.400,407859.500,194548.900,238352.300,210770.700,204003.300,219270.800,0.000
156515.800,183904.100,407857.100,194551.600,238361.100,210773.800,204008.300,219276.500,0.000
156511.200,183894.000,407851.800,194548.200,238349.700,210768.000,204004.100,219272.200,0.000
156505.600,183893.800,407847.000,194541.900,238354.500,210765.200,204003.900,219271.500,0.000
156506.800,183889.000,407845.300,194543.700,238352.500,210764.200,204005.700,219273.300,0.000
156506.200,183890.000,407844.100,194545.300,238354.400,210768.000,204007.200,219276.600,0.000
156503.100,183889.600,407835.900,194544.100,238361.100,210768.200,204008.300,219279.200,0.000
156507.100,183886.300,407835.200,194550.600,238356.900,210769.500,204011.500,219282.200,0.000
156506.000,183890.400,407831.700,194549.400,238363.100,210769.700,204014.600,219284.400,0.000
156500.100,183880.900,407822.000,194541.600,238352.200,210761.900,204008.200,219275.200,0.000
156493.900,183877.500,407815.700,194532.000,238345.300,210758.900,204001.000,219264.300,0.000
156494.800,183880.900,407813.600,194529.200,238350.100,210760.500,204001.400,219261.400,0.000
156503.300,183883.300,407820.000,194536.300,238344.700,210765.900,204004.600,219263.000,0.000
156503.100,183889.500,407817.800,194534.800,238349.400,210768.900,204005.100,219265.400,0.000
156499.600,183881.300,407809.500,194531.900,238341.700,210765.000,204000.400,219263.100,0.000
156496.400,183880.800,407807.300,194530.100,238341.600,210767.400,204001.200,219265.400,0.000
156498.000,183888.300,407807.200,194531.800,238355.200,210777.000,204012.000,219276.200,0.000
156503.300,183891.100,407809.300,194538.100,238354.200,210787.000,204021.000,219284.700,0.000
156493.800,183890.000,407798.900,194529.600,238355.400,210782.500,204017.000,219282.300,0.000
156479.100,183870.800,407783.100,194516.900,238339.300,210764.900,204001.000,219269.500,0.000
156468.300,183860.400,407774.500,194507.400,238328.200,210755.300,203988.300,219259.800,0.000
156461.800,183857.500,407766.900,194500.700,238328.800,210749.900,203981.500,219255.200,0.000
156460.600,183853.600,407765.600,194501.100,238319.500,210748.400,203976.200,219251.200,0.000
156460.000,183862.500,407764.400,194500.700,238326.300,210752.900,203977.100,219252.600,0.000
156472.800,183870.600,407773.300,194512.900,238332.500,210762.300,203987.500,219262.100,0.000
156488.300,183884.600,407791.100,194529.400,238345.900,210774.800,204003.100,219277.700,0.000
156491.600,183890.300,407794.400,194534.500,238359.100,210776.900,204009.800,219286.200,0.000
156489.700,183885.100,407790.800,194534.400,238353.700,210778.200,204005.800,219283.800,0.000
156482.300,183884.200,407780.700,194525.300,238355.200,210778.800,204000.400,219278.100,0.000
156478.700,183872.400,407774.100,194520.500,238342.600,210770.700,203995.700,219270.300,0.000
156474.700,183866.700,407772.800,194516.300,238332.900,210763.000,203992.100,219264.000,0.000
156470.700,183866.900,407766.300,194511.900,238334.700,210758.900,203991.500,219262.300,0.000
156477.200,183870.600,407768.100,194518.000,238333.300,210768.000,203997.000,219267.000,0.000
156477.500,183879.600,407765.700,194515.800,238343.900,210777.500,204002.000,219270.700,0.000
156475.200,183872.600,407759.500,194511.000,238337.500,210773.800,203999.000,219265.600,0.000
156478.300,183874.200,407762.700,194511.300,238335.200,210772.200,203999.300,219263.900,0.000
156481.000,183877.700,407762.000,194510.600,238340.000,210768.400,204000.500,219263.200,0.000
156484.500,183874.300,407760.900,194511.900,238331.800,210766.300,203997.600,219258.900,0.000
156487.100,183882.900,407760.000,194512.100,238341.600,210770.700,203999.900,219261.500,0.000
156490.500,183881.900,407760.000,194515.200,238341.600,210771.200,204000.800,219264.100,0.000
156486.700,183881.300,407759.100,194513.000,238339.700,210770.500,203998.200,219264.400,0.000
156480.300,183881.500,407751.500,194508.200,238344.200,210769.300,203997.900,219266.700,0.000
156483.500,183880.500,407752.200,194513.800,238339.300,210773.500,204001.500,219271.800,0.000
156487.700,183890.900,407755.900,194517.900,238350.700,210779.000,204008.400,219280.000,0.000
156492.600,183890.100,407757.800,194521.300,238353.000,210779.600,204010.400,219283.000,0.000
156489.700,183885.300,407754.500,194516.400,238351.800,210778.800,204006.500,219278.700,0.000
156479.000,183874.900,407739.000,194503.100,238350.200,210770.900,203999.500,219269.300,0.000
156479.300,183867.100,407734.200,194502.200,238341.300,210769.100,203998.300,219266.000,0.000
156481.200,183873.100,407733.300,194502.600,238351.600,210771.400,204002.200,219270.300,0.000
156476.300,183863.000,407723.500,194497.100,238344.900,210763.700,203994.700,219263.600,0.000
156467.600,183857.000,407714.900,194489.500,238338.200,210759.900,203985.100,219255.000,0.000
156464.500,183859.300,407710.900,194487.600,238345.900,210760.300,203985.000,219256.200,0.000
156469.800,183857.000,407716.400,194494.300,238340.600,210761.100,203987.700,219259.100,0.000
156471.000,183861.000,407718.100,194495.500,238344.500,210760.200,203990.800,219260.400,0.000
156473.500,183859.600,407715.800,194499.200,238340.300,210760.000,203991.200,219257.700,0.000
156474.200,183864.900,407714.800,194500.900,238340.000,210766.700,203990.000,219255.300,0.000
156472.700,183869.100,407710.900,194498.400,238348.500,210768.100,203989.500,219255.300,0.000
156478.700,183866.900,407715.200,194503.300,238344.200,210766.900,203991.200,219257.500,0.000
156483.000,183873.200,407717.800,194505.300,238350.800,210765.900,203997.100,219262.900,0.000
156488.600,183873.000,407717.500,194507.700,238348.900,210767.000,204002.100,219266.800,0.000
156493.000,183878.700,407719.200,194506.500,238349.300,210776.000,204005.400,219269.700,0.000
156490.500,183879.400,407712.300,194496.300,238351.700,210775.300,204002.800,219267.000,0.000
156488.900,183869.700,407708.800,194490.900,238339.500,210768.300,203997.800,219261.700,0.000
156484.900,183870.100,407705.800,194487.000,238344.000,210764.300,203999.300,219263.800,0.000
156483.000,183866.300,407700.300,194487.700,238341.000,210763.100,203999.600,219265.200,0.000
156484.800,183872.300,407701.300,194491.700,238343.600,210772.300,204000.500,219267.900,0.000
156485.000,183877.700,407701.000,194494.000,238355.500,210776.800,204002.200,219270.800,0.000
156481.600,183868.200,407700.300,194496.300,238347.000,210770.100,203998.500,219266.800,0.000
156474.800,183867.100,407697.100,194495.400,238351.000,210764.000,203999.700,219268.100,0.000
156478.000,183866.800,407696.400,194501.500,238352.600,210766.900,204005.600,219274.700,0.000
156484.700,183874.300,407699.500,194506.100,238357.000,210777.800,204009.600,219280.000,0.000
156485.000,183876.900,407695.400,194502.500,238366.200,210778.900,204008.300,219280.700,0.000
156480.500,183864.700,407689.000,194497.400,238354.300,210770.800,203999.000,219273.500,0.000
156470.200,183860.700,407679.500,194487.400,238352.000,210762.700,203991.200,219266.700,0.000
156470.000,183857.900,407675.300,194486.500,238347.200,210761.000,203990.500,219263.800,0.000
156472.400,183860.200,407674.800,194485.200,238344.700,210764.400,203991.300,219261.000,0.000
156465.800,183855.000,407662.000,194473.500,238345.000,210757.800,203985.400,219252.800,0.000
156460.600,183843.100,407651.600,194466.300,238331.200,210752.400,203977.400,219244.300,0.000
156456.000,183845.100,407645.300,194459.200,238332.900,210752.200,203975.100,219242.500,0.000
156458.300,183842.700,407642.900,194458.000,238327.300,210748.600,203973.700,219240.800,0.000
156468.200,183850.000,407651.200,194464.800,238326.100,210752.300,203978.700,219244.900,0.000
156478.900,183861.300,407658.600,194473.500,238337.000,210758.200,203988.200,219253.700,0.000
156485.100,183858.700,407662.800,194479.800,238331.800,210760.100,203988.300,219254.000,0.000
156478.600,183855.500,407655.900,194472.700,238333.900,210755.800,203982.300,219250.000,0.000
156476.600,183848.300,407649.000,194471.100,238328.800,210753.200,203980.100,219249.400,0.000
156481.300,183855.000,407653.500,194477.500,238330.800,210763.400,203986.400,219255.800,0.000
156478.900,183860.300,407651.300,194475.400,238340.100,210765.700,203989.200,219256.600,0.000
156475.400,183853.400,407647.000,194471.300,238330.200,210760.600,203984.800,219248.500,0.000
156468.600,183851.600,407639.300,194462.100,238329.000,210754.100,203980.600,219242.100,0.000
156460.800,183837.600,407625.800,194452.800,238316.700,210742.600,203970.900,219232.900,0.000
156459.800,183835.700,407621.300,194451.000,238312.100,210743.700,203967.800,219231.200,0.000
156467.000,183848.000,407624.100,194456.900,238327.000,210753.000,203976.900,219240.500,0.000
156473.900,183850.600,407629.300,194464.000,238325.800,210756.700,203980.900,219243.300,0.000
156470.100,183853.200,407626.800,194460.300,238330.800,210753.300,203980.400,219241.600,0.000
156468.400,183849.300,407621.400,194458.900,238328.400,210751.500,203979.800,219240.100,0.000
156468.000,183852.100,407619.100,194459.900,238326.700,210758.200,203980.900,219241.400,0.000
156467.100,183856.800,407615.800,194462.000,238334.900,210761.900,203985.300,219246.600,0.000
156471.200,183853.300,407620.400,194470.800,238330.400,210761.400,203989.700,219250.800,0.000
156469.500,183856.300,407621.100,194471.000,238336.200,210758.300,203993.600,219253.200,0.000
156469.200,183855.300,407616.800,194470.300,238334.900,210759.300,203994.700,219253.100,0.000
156470.600,183860.700,407616.400,194470.300,238335.100,210770.800,203995.800,219255.400,0.000
156468.200,183863.300,407612.100,194465.100,238342.000,210773.100,203995.100,219256.900,0.000
156470.500,183854.600,407612.900,194464.700,238332.000,210765.000,203990.500,219254.200,0.000
156473.400,183854.400,407612.600,194463.600,238332.500,210755.800,203987.600,219253.200,0.000
156478.300,183849.300,407606.000,194463.300,238325.400,210751.300,203982.400,219248.400,0.000
156480.200,183849.800,407599.900,194459.100,238319.100,210756.800,203976.900,219242.400,0.000
156477.700,183852.900,407593.700,194451.800,238324.700,210759.600,203976.300,219240.300,0.000
156480.100,183849.300,407597.700,194454.600,238319.200,210759.100,203978.600,219241.600,0.000
156476.800,183850.700,407597.800,194453.900,238323.800,210754.800,203980.300,219244.400,0.000
156469.900,183842.500,407587.400,194450.700,238317.600,210748.000,203975.000,219241.200,0.000
156465.100,183842.200,407579.900,194449.000,238312.800,210750.900,203971.200,219239.300,0.000
156463.700,183847.800,407574.100,194447.700,238321.400,210754.000,203973.200,219241.600,0.000
156469.200,183846.100,407576.100,194452.500,238316.800,210755.600,203974.100,219242.200,0.000
156469.900,183849.700,407575.400,194452.100,238322.100,210754.800,203974.800,219243.600,0.000
156469.900,183844.300,407569.800,194451.300,238319.300,210751.100,203973.200,219242.900,0.000
156468.500,183840.200,407565.800,194450.000,238313.300,210750.700,203971.300,219241.400,0.000
156461.500,183836.800,407555.300,194442.800,238314.900,210746.200,203968.200,219237.900,0.000
156463.000,183834.200,407554.100,194443.900,238310.300,210748.400,203966.600,219236.000,0.000
156467.700,183846.700,407559.000,194446.000,238324.600,210757.600,203972.100,219241.200,0.000
156471.700,183850.100,407560.500,194447.500,238327.500,210760.200,203975.600,219242.700,0.000
156472.700,183852.900,407562.200,194448.400,238322.900,210761.300,203977.000,219242.800,0.000
156465.800,183852.600,407554.000,194442.200,238322.900,210756.400,203973.900,219240.000,0.000
156459.800,183844.300,407545.500,194436.900,238310.600,210753.300,203965.100,219231.300,0.000
156455.200,183848.300,407540.700,194432.700,238317.600,210755.200,203962.600,219228.500,0.000
156454.000,183842.500,407536.500,194432.700,238316.100,210750.100,203960.300,219225.200,0.000
156452.800,183835.300,407534.700,194433.400,238306.800,210741.800,203956.900,219219.900,0.000
156454.800,183839.300,407534.000,194437.200,238313.600,210740.300,203961.900,219223.800,0.000
156468.000,183850.300,407544.700,194451.800,238319.200,210757.100,203973.400,219235.500,0.000
156473.200,183866.400,407550.200,194455.600,238336.000,210772.900,203982.200,219245.100,0.000
156464.200,183855.200,407538.900,194444.900,238330.600,210764.000,203974.900,219237.700,0.000
156447.000,183832.400,407523.300,194428.900,238310.200,210743.400,203960.500,219222.800,0.000
156435.500,183820.300,407509.800,194418.100,238305.100,210730.600,203955.400,219217.700,0.000
156439.400,183818.600,407508.800,194421.200,238300.800,210736.600,203958.100,219219.700,0.000
156441.000,183828.800,407508.500,194421.100,238312.100,210745.800,203962.900,219223.000,0.000
156441.800,183828.400,407506.100,194421.300,238313.000,210744.800,203964.300,219223.100,0.000
156444.600,183829.300,407508.300,194423.900,238308.300,210742.500,203965.100,219224.100,0.000
156446.000,183834.200,407505.800,194423.700,238313.300,210739.600,203967.400,219227.800,0.000
156452.000,183835.700,407505.700,194428.800,238309.100,210744.600,203969.000,219231.200,0.000
156452.600,183843.500,407503.100,194429.000,238317.600,210750.000,203970.600,219235.100,0.000
156454.300,183840.100,407501.100,194431.900,238318.000,210746.500,203971.000,219236.900,0.000
156458.100,183837.800,407506.100,194438.300,238313.300,210741.600,203972.900,219239.600,0.000
156455.100,183837.600,407501.000,194436.800,238314.800,210733.700,203971.300,219240.500,0.000
156451.500,183831.700,407493.300,194433.600,238303.700,210732.300,203963.700,219236.100,0.000
156447.500,183836.900,407489.500,194427.600,238311.500,210738.200,203963.000,219236.800,0.000
156453.300,183839.400,407495.000,194432.100,238320.500,210744.900,203971.900,219244.200,0.000
156462.100,183843.500,407506.000,194442.100,238325.000,210750.700,203982.800,219253.200,0.000
156458.400,183844.000,407500.600,194439.600,238330.200,210747.300,203985.300,219254.100,0.000
156451.300,183836.900,407490.000,194434.100,238318.600,210747.500,203979.300,219246.300,0.000
156444.700,183842.000,407483.400,194430.000,238325.000,210755.400,203979.400,219245.500,0.000
156442.200,183839.200,407479.000,194431.300,238326.000,210755.600,203980.800,219246.900,0.000
156437.900,183831.800,407475.900,194429.200,238316.300,210745.300,203976.700,219242.600,0.000
156431.400,183826.500,407467.200,194420.500,238314.600,210730.200,203970.600,219235.800,0.000
156435.600,183823.600,407465.100,194420.400,238305.700,210727.500,203966.300,219231.500,0.000
156440.200,183834.300,407464.900,194420.900,238313.900,210732.000,203968.000,219234.100,0.000
156444.000,183834.600,407461.000,194421.400,238313.800,210728.500,203965.900,219234.100,0.000
156446.900,183831.500,407458.800,194421.600,238305.000,210721.000,203959.900,219230.500,0.000
156447.400,183830.800,407452.300,194418.900,238307.500,210712.900,203957.100,219228.300,0.000
156454.200,183829.200,407452.400,194422.800,238303.400,210716.100,203958.800,219228.400,0.000
156456.300,183837.300,407453.100,194422.500,238312.500,210723.300,203964.300,219232.100,0.000
156455.600,183835.800,407449.400,194421.000,238313.800,210723.800,203966.600,219232.500,0.000
156454.300,183834.600,407447.400,194420.000,238309.500,210724.900,203966.300,219231.000,0.000
156446.500,183832.400,407436.800,194411.600,238310.800,210721.200,203962.600,219227.700,0.000
156442.300,183822.600,407428.500,194407.700,238297.000,210718.100,203955.000,219221.900,0.000
156438.000,183823.200,407423.700,194404.400,238297.800,210715.500,203951.400,219220.200,0.000
156439.000,183820.700,407421.500,194406.500,238298.200,210712.000,203951.300,219220.800,0.000
156446.700,183825.400,407428.400,194414.600,238300.000,210717.000,203956.600,219226.300,0.000
156445.700,183829.600,407426.300,194412.900,238308.900,210716.800,203959.000,219228.400,0.000
156438.000,183819.200,407417.800,194405.100,238297.300,210711.000,203950.500,219219.100,0.000
156429.300,183818.200,407409.300,194395.900,238298.200,210707.400,203945.300,219213.700,0.000
156424.500,183812.800,407400.500,194392.000,238294.800,210704.000,203941.700,219210.600,0.000
156419.800,183809.500,407397.000,194391.600,238287.100,210704.800,203938.400,219208.400,0.000
156412.600,183811.200,407391.000,194388.800,238291.400,210704.600,203939.300,219209.100,0.000
156409.800,183804.800,407387.000,194388.300,238282.000,210704.500,203938.400,219206.800,0.000
156409.100,183806.200,407384.800,194385.600,238285.000,210705.100,203940.500,219207.400,0.000
156415.900,183805.300,407384.200,194387.700,238287.300,210705.900,203944.100,219209.200,0.000
156427.800,183809.800,407390.200,194394.100,238289.400,210712.500,203948.900,219212.700,0.000
156435.300,183816.000,407389.800,194396.000,238300.800,210714.800,203953.600,219216.900,0.000
156439.300,183809.300,407385.800,194397.000,238292.500,210711.600,203951.000,219213.900,0.000
156433.400,183806.700,407377.800,194390.000,238290.900,210704.900,203945.900,219209.000,0.000
156427.500,183800.600,407370.300,194383.400,238286.300,210699.200,203940.700,219205.100,0.000
156425.600,183800.900,407372.700,194381.400,238283.300,210702.800,203940.100,219206.700,0.000
156422.700,183805.900,407372.800,194377.800,238293.900,210705.900,203944.300,219212.500,0.000
156424.000,183803.300,407373.800,194379.000,238289.000,210707.900,203945.500,219214.200,0.000
156419.700,183806.600,407370.600,194374.900,238291.000,210707.200,203944.500,219213.800,0.000
156413.900,183805.200,407363.800,194370.100,238289.700,210706.400,203942.000,219211.200,0.000
156410.300,183807.600,407363.300,194367.700,238286.500,210712.600,203942.800,219210.100,0.000
156405.300,183811.800,407357.800,194361.800,238292.000,210714.400,203945.200,219210.300,0.000
156410.500,183810.600,407357.800,194365.000,238286.000,210716.500,203947.400,219211.100,0.000
156415.200,183816.400,407359.300,194368.300,238292.300,210716.900,203951.600,219215.300,0.000
156414.900,183809.200,407352.300,194367.800,238289.800,210709.200,203949.300,219212.300,0.000
156414.900,183801.200,407347.300,194367.600,238281.600,210703.500,203944.900,219206.600,0.000
156414.300,183798.900,407340.000,194364.600,238285.100,210696.500,203943.600,219204.700,0.000
156413.300,183788.600,407333.500,194362.600,238272.300,210689.600,203939.000,219199.900,0.000
156404.600,183784.500,407325.300,194354.200,238268.500,210683.900,203934.500,219195.100,0.000
156402.800,183782.400,407322.000,194352.100,238267.900,210684.100,203933.600,219194.000,0.000
156411.000,183791.100,407332.800,194361.100,238273.600,210696.100,203939.300,219200.400,0.000
156412.100,183800.700,407335.600,194364.300,238288.900,210702.300,203944.200,219205.700,0.000
156408.800,183796.200,407330.700,194364.300,238281.800,210702.200,203940.000,219201.200,0.000
156408.900,183804.500,407330.400,194365.800,238289.600,210707.200,203942.400,219203.900,0.000
156419.400,183814.900,407336.300,194375.000,238302.300,210717.900,203951.800,219213.500,0.000
156425.900,183818.800,407339.100,194377.700,238302.000,210724.100,203953.300,219215.300,0.000
156422.200,183817.100,407329.200,194367.500,238303.400,210718.300,203947.200,219209.700,0.000
156428.300,183812.900,407327.700,194367.600,238296.500,210717.300,203944.200,219207.500,0.000
156433.700,183818.100,407330.100,194369.300,238301.700,210717.600,203946.400,219212.100,0.000
156429.500,183808.800,407322.200,194363.700,238293.800,210706.900,203940.100,219208.700,0.000
156421.200,183794.500,407314.200,194356.200,238276.200,210695.100,203930.000,219201.000,0.000
156414.900,183789.500,407306.400,194350.700,238276.400,210687.300,203928.200,219201.400,0.000
156418.800,183789.000,407305.800,194354.200,238272.200,210691.500,203930.000,219204.400,0.000
156418.100,183798.500,407303.700,194351.400,238281.300,210698.500,203931.400,219206.000,0.000
156414.200,183796.500,407297.200,194346.900,238284.600,210696.200,203930.300,219203.300,0.000
156412.200,183792.200,407297.500,194348.500,238279.000,210692.000,203931.800,219202.500,0.000
156408.600,183794.800,407296.200,194350.000,238285.200,210690.900,203938.100,219205.900,0.000
156408.100,183793.800,407295.300,194354.700,238281.700,210700.500,203940.800,219206.500,0.000
156404.600,183798.700,407293.100,194354.400,238289.300,210708.900,203941.900,219208.300,0.000
156406.800,183797.000,407292.700,194358.100,238293.200,210706.800,203944.100,219211.500,0.000
156412.500,183795.300,407297.500,194365.100,238287.600,210701.600,203945.600,219212.800,0.000
156412.900,183798.200,407294.400,194364.600,238290.300,210695.000,203944.800,219211.900,0.000
156418.500,183797.600,407292.100,194366.900,238282.300,210696.500,203941.400,219208.600,0.000
156420.500,183802.700,407288.800,194363.300,238285.700,210699.200,203938.900,219205.400,0.000
156418.400,183796.900,407280.700,194355.100,238283.100,210693.800,203932.000,219198.500,0.000
156416.500,183789.500,407276.900,194349.300,238273.000,210688.400,203924.700,219192.000,0.000
156416.300,183789.700,407273.500,194346.100,238278.600,210686.000,203926.100,219193.000,0.000
156419.300,183784.700,407271.900,194347.800,238272.200,210688.600,203928.000,219192.700,0.000
156411.000,183783.700,407263.900,194340.200,238270.900,210687.500,203926.600,219189.000,0.000
156406.200,183783.800,407257.900,194339.000,238273.000,210689.400,203929.600,219190.000,0.000
156412.000,183792.500,407264.900,194350.300,238278.200,210701.400,203938.900,219199.900,0.000
156411.400,183800.900,407265.200,194353.700,238291.800,210704.400,203944.100,219208.100,0.000
156411.100,183798.000,407266.000,194357.600,238288.100,210702.900,203944.000,219210.700,0.000
156407.600,183799.300,407266.000,194358.000,238289.400,210699.300,203946.100,219214.900,0.000
156398.600,183789.300,407254.300,194350.000,238280.700,210689.500,203939.700,219210.200,0.000
156388.500,183779.900,407242.100,194337.700,238266.300,210685.200,203926.900,219198.500,0.000
156385.000,183786.100,407236.200,194329.400,238275.500,210689.000,203925.200,219197.000,0.000
156396.300,183794.100,407245.500,194338.000,238280.200,210698.000,203934.500,219204.800,0.000
156400.400,183799.200,407249.200,194340.800,238286.400,210695.600,203940.000,219208.200,0.000
156400.000,183790.900,407237.900,194335.500,238281.200,210687.900,203934.300,219201.200,0.000
156405.700,183789.200,407231.900,194334.400,238273.300,210693.900,203928.800,219195.600,0.000
156408.700,183795.200,407228.100,194332.200,238281.500,210697.400,203927.500,219194.300,0.000
156414.000,183791.100,407231.400,194335.700,238275.500,210693.000,203926.500,219191.300,0.000
156418.300,183794.000,407236.200,194337.900,238275.900,210687.300,203930.000,219192.000,0.000
156421.800,183796.900,407233.100,194338.100,238274.300,210687.300,203930.600,219191.400,0.000
156421.200,183802.000,407229.100,194336.400,238270.100,210697.200,203927.600,219188.700,0.000
156410.000,183804.300,407219.600,194327.700,238278.700,210698.800,203926.100,219187.200,0.000
156399.900,183790.000,407213.300,194323.800,238267.900,210686.900,203922.800,219184.400,0.000
156394.500,183785.100,407212.800,194324.200,238265.200,210674.500,203925.200,219188.100,0.000
156398.800,183787.300,407213.600,194330.000,238267.000,210676.000,203930.600,219194.400,0.000
156406.100,183793.900,407217.000,194335.900,238267.100,210690.800,203932.800,219196.800,0.000
156405.700,183798.000,407213.200,194333.600,238278.300,210696.700,203932.500,219196.400,0.000
156406.500,183786.900,407210.400,194335.700,238271.700,210691.900,203929.500,219192.700,0.000
156404.100,183782.100,407206.400,194334.500,238268.700,210683.000,203928.500,219190.400,0.000
156400.900,183779.900,407197.800,194329.900,238264.000,210678.400,203926.400,219186.800,0.000
156401.000,183785.600,407197.700,194328.100,238261.300,210686.000,203926.300,219186.400,0.000
156401.500,183797.000,407199.100,194325.700,238276.700,210692.800,203930.700,219192.400,0.000
156408.800,183796.800,407203.700,194330.200,238275.600,210694.200,203932.900,219196.500,0.000
156409.300,183795.900,407202.700,194329.100,238275.500,210687.300,203932.100,219197.300,0.000
156404.900,183788.100,407192.200,194323.700,238271.700,210679.500,203927.800,219193.800,0.000
156405.300,183786.100,407188.200,194323.900,238266.700,210683.800,203926.600,219194.000,0.000
156405.100,183791.900,407183.900,194322.900,238275.800,210687.900,203929.000,219197.700,0.000
156407.100,183788.600,407182.700,194324.500,238268.700,210688.500,203927.400,219196.500,0.000
156405.800,183790.300,407182.700,194323.100,238267.800,210687.500,203927.300,219196.400,0.000
156408.300,183790.600,407181.600,194323.000,238267.800,210689.200,203928.800,219197.700,0.000
156418.000,183795.700,407188.900,194328.300,238267.600,210698.300,203932.400,219200.600,0.000
156422.100,183802.700,407190.900,194327.800,238281.200,210701.300,203936.500,219203.100,0.000
156420.700,183794.300,407187.100,194325.300,238274.800,210697.500,203932.700,219197.900,0.000
156414.500,183791.700,407182.300,194321.100,238275.000,210692.700,203930.100,219195.600,0.000
156411.600,183788.300,407176.500,194320.900,238275.800,210688.800,203929.800,219195.600,0.000
156409.300,183781.500,407173.100,194320.800,238266.500,210685.000,203926.600,219192.100,0.000
156403.100,183777.000,407165.200,194314.100,238268.600,210676.900,203923.000,219190.100,0.000
156403.300,183768.600,407161.000,194313.800,238260.400,210672.700,203918.800,219189.600,0.000
156402.400,183770.100,407159.300,194314.200,238262.600,210671.200,203918.600,219193.800,0.000
156403.500,183771.000,407157.600,194317.000,238267.400,210672.000,203921.300,219199.000,0.000
156407.000,183773.700,407160.700,194321.500,238265.200,210677.200,203923.700,219201.400,0.000
156401.800,183776.500,407152.800,194313.800,238268.100,210674.600,203921.000,219196.900,0.000
156398.900,183768.800,407142.000,194305.600,238252.600,210669.800,203911.500,219184.800,0.000
156398.000,183772.400,407136.700,194298.600,238249.400,210668.900,203906.600,219177.500,0.000
156400.200,183777.800,407135.000,194296.300,238252.700,210670.600,203906.400,219174.700,0.000
156406.700,183782.400,407142.100,194301.600,238251.100,210675.100,203908.800,219175.500,0.000
156409.700,183787.400,407144.000,194303.900,238259.500,210674.000,203911.600,219179.000,0.000
156416.200,183783.700,407145.700,194309.500,238255.000,210675.000,203911.300,219181.100,0.000
156415.800,183782.700,407144.700,194308.500,238256.400,210674.900,203910.400,219182.200,0.000
156406.400,183771.600,407134.500,194299.900,238251.500,210666.500,203904.500,219175.900,0.000
156400.200,183765.100,407131.700,194298.200,238242.900,210664.400,203902.800,219172.400,0.000
156396.100,183772.500,407129.500,194299.400,238253.500,210668.700,203909.600,219177.300,0.000
156397.800,183775.900,407129.400,194304.700,238252.900,210678.600,203915.300,219180.200,0.000
156400.700,183787.100,407133.800,194307.300,238263.200,210689.500,203924.100,219185.500,0.000
156405.600,183792.300,407137.000,194308.900,238272.600,210694.700,203930.600,219190.300,0.000
156412.300,183792.400,407143.300,194312.100,238269.500,210696.800,203932.100,219192.000,0.000
156411.700,183793.300,407140.100,194307.200,238273.000,210692.400,203929.600,219189.800,0.000
156409.100,183782.700,407130.700,194300.200,238259.000,210686.300,203919.200,219178.800,0.000
156404.500,183778.400,407122.200,194292.000,238255.500,210680.500,203911.600,219171.300,0.000
156405.400,183775.000,407117.300,194291.000,238258.300,210675.300,203910.500,219171.100,0.000
156412.000,183775.000,407121.800,194299.200,238255.700,210674.900,203914.000,219175.800,0.000
156414.200,183782.900,407122.800,194304.700,238266.700,210676.300,203921.600,219184.400,0.000
156414.000,183782.000,407119.300,194309.700,238264.200,210680.500,203923.900,219187.500,0.000
156404.000,183779.900,407108.800,194306.100,238265.100,210678.100,203920.300,219185.400,0.000
156392.900,183768.900,407093.100,194298.700,238262.100,210667.700,203912.400,219178.300,0.000
156387.300,183756.100,407085.200,194293.100,238248.800,210658.100,203903.900,219169.300,0.000
156381.900,183752.600,407078.900,194284.400,238249.900,210650.200,203898.900,219164.600,0.000
156389.700,183754.200,407084.300,194288.300,238248.500,210656.700,203899.400,219167.200,0.000
156404.900,183773.200,407101.000,194299.800,238264.900,210674.600,203911.200,219181.800,0.000
156419.100,183786.300,407112.800,194309.900,238278.900,210686.800,203923.200,219194.100,0.000
156422.400,183784.100,407114.500,194310.700,238270.500,210685.400,203922.900,219190.500,0.000
156409.800,183777.600,407098.700,194296.300,238263.500,210672.800,203913.900,219177.000,0.000
156405.100,183771.400,407087.500,194290.400,238250.400,210671.000,203906.200,219166.900,0.000
156404.500,183779.300,407085.800,194290.100,238255.800,210677.600,203906.100,219167.100,0.000
156401.000,183778.600,407080.500,194288.800,238260.800,210677.300,203904.700,219166.400,0.000
156400.500,183770.100,407079.000,194292.100,238252.300,210673.000,203902.800,219165.000,0.000
156402.300,183767.600,407076.600,194295.400,238256.900,210669.200,203905.800,219169.300,0.000
156410.800,183763.700,407078.500,194303.200,238254.100,210674.700,203909.500,219173.600,0.000
156411.400,183767.300,407080.000,194303.700,238259.600,210679.400,203911.600,219176.000,0.000
156406.900,183767.300,407076.000,194299.800,238263.000,210676.500,203909.800,219175.200,0.000
156405.000,183766.400,407077.500,194298.500,238256.700,210673.900,203908.300,219174.800,0.000
156393.700,183765.200,407068.900,194285.100,238256.800,210664.700,203903.700,219170.600,0.000
156387.200,183758.900,407059.900,194274.200,238244.900,210660.000,203896.200,219162.500,0.000
156391.500,183769.500,407061.800,194273.100,238251.800,210667.100,203900.300,219165.500,0.000
156398.300,183775.900,407060.600,194275.400,238260.100,210672.300,203906.700,219170.700,0.000
156400.800,183772.900,407059.000,194278.000,238252.800,210672.000,203908.100,219171.600,0.000
156394.800,183771.300,407052.300,194274.800,238256.500,210666.700,203908.700,219171.600,0.000
156390.500,183761.200,407044.200,194274.800,238247.600,210664.500,203905.000,219167.400,0.000
156385.100,183756.600,407035.500,194272.700,238245.100,210663.700,203902.000,219164.900,0.000
156382.900,183749.600,407025.200,194271.000,238243.500,210660.500,203899.700,219163.400,0.000
156387.300,183744.400,407025.200,194276.400,238235.800,210660.400,203899.900,219164.800,0.000
156389.400,183748.800,407025.900,194279.900,238243.800,210660.700,203904.200,219170.900,0.000
156394.600,183748.900,407028.800,194285.400,238240.500,210664.500,203905.600,219173.100,0.000
156396.800,183754.900,407033.600,194286.600,238244.800,210667.600,203907.000,219174.300,0.000
156396.100,183754.200,407032.400,194284.700,238247.200,210664.900,203905.700,219172.800,0.000
156394.400,183749.800,407031.300,194283.400,238237.300,210662.400,203901.700,219168.500,0.000
156391.700,183758.900,407028.100,194279.500,238246.100,210664.500,203903.300,219168.700,0.000
156400.000,183772.600,407033.500,194285.700,238253.500,210678.200,203908.300,219172.000,0.000
156404.300,183787.700,407041.400,194289.300,238267.400,210687.300,203913.300,219175.300,0.000
156401.100,183784.900,407039.900,194287.700,238271.200,210681.100,203914.200,219174.300,0.000
156401.200,183775.800,407040.200,194290.600,238261.100,210677.100,203915.500,219174.200,0.000
156401.400,183775.800,407037.400,194290.500,238267.900,210678.000,203920.900,219178.000,0.000
156407.500,183772.600,407036.200,194292.400,238266.200,210685.100,203923.800,219180.100,0.000
156408.200,183772.500,407034.000,194287.900,238268.600,210688.300,203922.600,219180.900,0.000
156406.800,183765.000,407028.100,194283.000,238267.700,210679.300,203917.800,219178.800,0.000
156416.100,183762.700,407035.400,194292.800,238261.400,210674.500,203918.500,219182.400,0.000
156425.000,183773.700,407043.300,194302.900,238271.500,210676.600,203925.800,219193.300,0.000
156429.800,183777.300,407045.000,194307.800,238267.200,210684.300,203926.100,219196.500,0.000
156423.000,183781.000,407040.200,194300.700,238267.600,210688.500,203921.000,219192.400,0.000
156414.100,183776.800,407030.800,194291.000,238267.500,210681.800,203914.200,219185.100,0.000
156412.700,183771.200,407028.000,194287.500,238256.100,210673.300,203907.800,219178.800,0.000
156410.300,183773.000,407022.100,194281.800,238257.600,210664.600,203904.300,219176.600,0.000
156411.900,183769.700,407017.300,194282.100,238251.000,210665.000,203902.100,219175.200,0.000
156410.900,183772.800,407015.100,194281.100,238256.100,210671.900,203904.700,219177.100,0.000
156409.200,183770.800,407010.600,194279.200,238262.700,210674.700,203908.100,219178.000,0.000
156413.200,183766.600,407013.800,194284.500,238258.200,210677.500,203912.300,219179.700,0.000
156415.800,183769.800,407015.900,194288.800,238267.500,210678.300,203919.700,219186.600,0.000
156417.100,183764.600,407014.500,194291.800,238262.200,210678.800,203920.500,219187.800,0.000
156408.400,183763.300,407008.800,194285.800,238259.800,210677.400,203916.200,219183.500,0.000
156398.400,183761.800,406999.500,194279.000,238260.800,210675.100,203912.300,219178.600,0.000
156396.000,183762.400,406998.800,194280.200,238255.500,210678.600,203912.000,219177.200,0.000
156388.400,183764.100,406992.900,194275.100,238260.700,210674.700,203910.600,219176.300,0.000
156385.600,183756.000,406987.400,194273.000,238253.500,210669.200,203905.500,219172.800,0.000
156392.200,183763.000,406992.600,194278.000,238261.200,210675.400,203910.200,219179.200,0.000
156400.700,183769.500,406995.500,194283.300,238270.700,210684.100,203915.500,219185.500,0.000
156403.100,183764.100,406993.200,194282.500,238260.200,210686.000,203910.600,219181.600,0.000
156397.900,183758.400,406983.400,194272.400,238259.700,210678.400,203904.400,219176.400,0.000
156401.000,183749.500,406979.500,194271.400,238251.600,210672.800,203901.800,219173.600,0.000
156407.100,183753.600,406982.400,194275.400,238252.600,210671.700,203905.700,219177.300,0.000
156411.500,183760.300,406980.500,194277.400,238256.700,210674.400,203909.100,219181.500,0.000
156412.100,183763.700,406977.600,194275.900,238250.800,210682.300,203905.800,219179.300,0.000
156401.800,183763.600,406966.800,194264.500,238254.000,210680.200,203898.800,219172.700,0.000
156397.100,183751.400,406961.200,194261.400,238242.400,210669.500,203893.200,219166.000,0.000
156394.900,183746.600,406961.800,194261.300,238235.200,210655.400,203893.000,219164.900,0.000
156392.600,183745.200,406956.000,194256.700,238231.700,210647.400,203891.800,219163.100,0.000
156395.000,183751.200,406955.200,194254.000,238229.200,210658.900,203890.600,219161.300,0.000
156391.300,183761.200,406951.700,194246.000,238243.900,210667.100,203890.500,219160.400,0.000
156391.500,183755.300,406949.700,194246.300,238239.800,210663.200,203890.900,219158.600,0.000
156396.500,183754.400,406954.000,194255.200,238239.300,210659.500,203899.700,219165.400,0.000
156403.700,183757.100,406955.600,194266.900,238246.900,210665.500,203910.500,219176.000,0.000
156409.300,183761.500,406959.200,194277.500,238250.500,210682.500,203915.800,219182.100,0.000
156402.300,183766.600,406955.600,194274.400,238265.500,210689.300,203916.500,219182.400,0.000
156397.000,183759.600,406952.900,194273.400,238262.600,210683.500,203914.100,219178.800,0.000
156394.500,183758.500,406954.000,194274.000,238260.300,210673.600,203913.000,219178.800,0.000
156392.900,183756.700,406947.900,194270.900,238258.300,210666.300,203908.600,219177.600,0.000
156395.700,183757.400,406946.100,194270.500,238251.000,210671.100,203904.600,219176.000,0.000
156396.300,183766.700,406946.300,194268.600,238264.500,210676.400,203908.200,219179.600,0.000
156398.700,183761.800,406946.400,194270.500,238260.900,210674.400,203909.700,219179.500,0.000
156397.300,183757.900,406943.000,194268.300,238253.900,210668.300,203908.500,219176.800,0.000
156398.900,183760.900,406936.600,194266.600,238255.100,210669.200,203909.200,219177.200,0.000
156404.100,183766.200,406935.900,194269.500,238252.400,210677.800,203910.100,219178.000,0.000
156395.100,183765.200,406924.500,194259.700,238255.800,210671.400,203904.300,219172.600,0.000
156385.300,183747.900,406910.800,194251.600,238239.700,210655.800,203892.200,219161.300,0.000
156380.200,183742.100,406905.900,194249.100,238233.100,210647.800,203887.100,219156.700,0.000
156381.500,183744.200,406902.800,194250.200,238238.800,210649.600,203888.800,219159.000,0.000
156390.800,183747.400,406905.500,194257.000,238237.300,210656.600,203891.900,219163.800,0.000
156396.200,183754.000,406903.800,194258.200,238246.200,210655.600,203895.300,219170.000,0.000
156403.900,183751.400,406902.200,194260.500,238241.000,210652.500,203896.800,219172.400,0.000
156408.300,183754.900,406902.400,194258.500,238241.400,210652.300,203899.600,219173.600,0.000
156407.600,183756.300,406895.200,194251.500,238243.800,210651.500,203898.300,219169.500,0.000
156408.100,183754.200,406892.500,194250.600,238234.100,210652.800,203894.100,219163.000,0.000
156403.400,183757.800,406889.300,194248.800,238239.400,210651.700,203894.000,219160.700,0.000
156398.400,183753.700,406884.700,194248.900,238235.500,210651.400,203892.700,219156.800,0.000
156390.800,183755.600,406881.300,194247.000,238238.000,210654.100,203893.400,219155.700,0.000
156381.400,183752.700,406872.600,194242.000,238240.000,210652.600,203890.900,219152.900,0.000
156377.200,183744.100,406868.900,194241.400,238228.100,210648.700,203884.700,219147.500,0.000
156377.600,183749.400,406868.300,194242.200,238236.100,210647.500,203886.000,219149.800,0.000
156384.800,183753.300,406869.200,194247.600,238236.500,210653.400,203888.600,219152.400,0.000
156386.000,183759.000,406868.600,194247.100,238238.500,210659.400,203889.900,219151.800,0.000
156383.200,183757.500,406862.000,194241.800,238241.100,210659.500,203889.600,219148.100,0.000
156385.200,183749.700,406861.400,194242.400,238232.500,210657.800,203890.400,219145.800,0.000
156386.600,183750.400,406860.900,194242.200,238240.500,210654.400,203895.900,219149.900,0.000
156390.800,183746.500,406858.600,194244.600,238237.700,210653.600,203896.800,219151.100,0.000
156390.300,183746.800,406854.600,194242.500,238236.800,210653.900,203893.800,219150.600,0.000
156386.500,183744.300,406845.300,194237.400,238238.300,210650.500,203889.500,219149.000,0.000
156386.700,183738.600,406842.600,194239.100,238227.800,210645.500,203887.200,219147.200,0.000
156383.500,183740.000,406837.300,194237.300,238228.200,210638.300,203887.500,219147.500,0.000
156381.000,183734.200,406827.800,194233.800,238215.800,210636.300,203881.500,219142.400,0.000
156376.400,183734.300,406821.400,194227.500,238212.600,210639.200,203874.900,219137.300,0.000
156373.100,183735.300,406819.400,194224.700,238220.300,210639.800,203873.400,219136.300,0.000
156378.600,183736.200,406829.700,194233.600,238220.000,210640.100,203879.700,219142.300,0.000
156382.300,183746.500,406834.400,194238.300,238232.400,210640.800,203890.000,219152.600,0.000
156385.800,183751.900,406829.300,194238.900,238232.100,210650.500,203892.400,219155.600,0.000
156385.300,183761.100,406824.500,194235.900,238237.200,210663.900,203892.000,219157.100,0.000
156382.200,183759.900,406819.000,194233.300,238243.300,210664.000,203891.300,219158.300,0.000
156384.900,183751.000,406823.400,194239.800,238235.100,210657.300,203893.300,219160.900,0.000
156383.500,183750.800,406823.900,194241.200,238238.600,210651.400,203897.500,219165.600,0.000
156378.700,183744.000,406815.600,194237.600,238228.400,210650.200,203892.600,219160.800,0.000
156375.000,183746.900,406811.600,194234.500,238229.700,210655.700,203889.900,219157.700,0.000
156375.500,183749.200,406808.800,194233.100,238239.400,210657.700,203890.500,219156.600,0.000
156379.500,183740.600,406808.900,194233.500,238229.200,210652.300,203887.000,219149.200,0.000
156383.100,183741.300,406807.700,194231.800,238231.700,210646.400,203886.900,219145.800,0.000
156393.200,183744.900,406809.300,194237.900,238230.100,210649.600,203888.800,219146.500,0.000
156396.400,183752.700,406811.300,194240.600,238231.300,210652.500,203888.700,219146.900,0.000
156388.000,183750.200,406802.500,194233.100,238229.000,210646.000,203882.300,219141.900,0.000
156381.800,183741.200,406798.600,194229.100,238213.900,210641.500,203877.200,219137.600,0.000
156377.600,183743.300,406798.100,194226.900,238218.300,210641.800,203881.400,219142.500,0.000
156380.400,183740.400,406799.200,194230.400,238216.400,210644.100,203886.100,219148.300,0.000
156382.200,183740.200,406799.200,194230.800,238218.100,210643.600,203889.000,219153.000,0.000
156376.700,183734.500,406786.300,194221.400,238217.800,210636.500,203883.400,219149.800,0.000
156371.000,183726.000,406775.100,194213.300,238204.600,210632.500,203873.800,219141.700,0.000
156366.400,183732.400,406769.600,194207.500,238213.900,210636.000,203874.400,219142.500,0.000
156368.300,183733.000,406769.700,194210.700,238214.400,210641.100,203879.400,219145.500,0.000
156367.600,183733.300,406772.800,194213.800,238213.200,210640.200,203884.400,219148.300,0.000
156363.500,183732.800,406768.700,194211.100,238215.800,210637.500,203885.500,219147.900,0.000
156366.100,183736.800,406771.400,194213.300,238215.600,210648.500,203886.600,219148.700,0.000
156368.500,183752.500,406777.500,194215.700,238237.500,210663.900,203894.000,219156.800,0.000
156369.600,183749.700,406779.300,194219.300,238239.200,210664.500,203896.300,219159.900,0.000
156366.500,183740.900,406777.000,194218.800,238232.400,210653.300,203896.200,219159.700,0.000
156361.300,183733.700,406764.800,194211.500,238228.800,210645.500,203893.000,219156.600,0.000
156359.100,183727.300,406755.100,194205.600,238217.300,210647.900,203884.300,219149.200,0.000
156358.400,183733.000,406751.400,194202.000,238228.200,210653.400,203882.400,219148.100,0.000
156363.800,183730.100,406753.000,194206.600,238228.100,210651.900,203883.300,219147.500,0.000
156365.600,183727.900,406755.700,194209.000,238222.800,210642.300,203883.500,219144.800,0.000
156366.900,183731.900,406754.500,194208.500,238224.300,210639.700,203884.300,219144.200,0.000
156373.700,183739.100,406759.100,194212.500,238221.900,210650.200,203885.900,219146.700,0.000
156372.800,183748.500,406757.800,194208.800,238234.100,210655.000,203886.300,219149.500,0.000
156371.100,183741.600,406751.800,194206.600,238229.400,210648.700,203882.500,219147.400,0.000
156374.400,183742.600,406754.500,194211.800,238229.200,210645.800,203887.700,219153.400,0.000
156380.800,183750.700,406756.700,194218.700,238240.100,210651.300,203897.800,219164.300,0.000
156386.200,183750.200,406756.800,194223.500,238235.200,210657.500,203899.400,219167.000,0.000
156384.600,183750.600,406751.600,194218.800,238239.800,210656.700,203896.800,219166.400,0.000
156382.600,183738.000,406743.500,194212.300,238228.200,210647.600,203887.700,219159.400,0.000
156379.800,183731.500,406739.200,194205.600,238219.800,210639.600,203881.600,219154.000,0.000
156382.700,183738.500,406738.000,194204.900,238229.100,210644.400,203887.400,219157.300,0.000
