EEG 1, EEG 2, EEG 3, EEG 4, EEG 5, EEG 6, EEG 7, EEG 8, TRIG
750000.100,750000.100,750000.100,629659.500,558201.700,315528.400,750000.100,750000.100,0.000
750000.100,750000.100,750000.100,750000.100,750000.100,654828.100,750000.100,750000.100,0.000
750000.100,750000.100,750000.100,750000.100,750000.100,750000.100,750000.100,750000.100,0.000
750000.100,750000.100,750000.100,750000.100,750000.100,750000.100,750000.100,750000.100,0.000
750000.100,750000.100,750000.100,750000.100,750000.100,750000.100,750000.100,750000.100,0.000
750000.100,750000.100,750000.100,750000.100,750000.100,750000.100,750000.100,750000.100,0.000
750000.100,750000.100,750000.100,750000.100,750000.100,750000.100,750000.100,750000.100,0.000
706321.600,750000.100,750000.100,750000.100,750000.100,750000.100,750000.100,750000.100,0.000
586693.400,693508.800,750000.100,750000.100,750000.100,750000.100,750000.100,750000.100,0.000
495314.100,584389.600,750000.100,649550.100,750000.100,672420.400,650219.700,700222.200,0.000
421652.400,497343.000,750000.100,551348.300,653695.500,572453.300,553087.500,595506.000,0.000
360449.700,425404.100,750000.100,470251.800,558893.500,489276.800,473008.200,509200.100,0.000
313296.900,369965.900,750000.100,407883.900,485887.500,424961.900,411396.800,442701.100,0.000
291810.300,344660.100,750000.100,378968.400,452533.800,395682.800,383172.600,412298.300,0.000
282491.500,333042.600,750000.100,366059.400,436619.000,382901.100,370373.700,398533.700,0.000
274246.100,323259.500,750000.100,354806.300,423156.600,371796.300,359330.000,386613.500,0.000
266463.000,314222.700,750000.100,344316.700,411299.900,361251.100,349269.200,375753.300,0.000
259245.600,305892.200,742158.500,334627.100,400489.300,351321.300,340065.100,365833.300,0.000
252733.100,298267.600,721951.400,325758.600,390568.200,342404.300,331596.500,356705.200,0.000
247045.700,290991.700,703782.100,317931.100,380564.800,334545.100,323642.000,348146.100,0.000
241714.700,284644.000,687255.600,310715.000,371776.800,327397.600,316405.800,340376.400,0.000
236561.000,278717.400,671643.300,303852.200,364039.400,320399.200,309769.800,333237.100,0.000
231707.900,273162.300,656996.800,297407.800,356910.000,313680.500,303635.500,326628.800,0.000
227252.700,267983.900,643347.800,291399.200,350255.000,307587.800,297880.500,320436.000,0.000
223399.500,262950.500,631034.100,286126.600,343290.400,302242.000,292399.500,314546.300,0.000
219740.500,258600.800,619780.300,281214.600,337206.800,297367.000,287403.700,309180.800,0.000
216118.400,254486.600,608960.900,276450.800,331884.100,292482.500,282789.700,304213.000,0.000
212664.300,250577.500,598675.700,271918.900,326948.300,287698.200,278491.700,299574.500,0.000
209484.000,246915.200,589005.000,267652.700,322301.100,283354.300,274422.500,295187.800,0.000
206770.500,243283.500,580283.800,263949.200,317224.700,279592.300,270496.600,290962.600,0.000
204150.300,240181.800,572286.300,260466.000,312831.500,276160.800,266909.000,287107.500,0.000
201520.900,237247.800,564508.800,257050.700,309072.200,272646.500,263609.900,283554.300,0.000
198978.500,234421.000,557020.200,253746.000,305558.300,269125.000,260512.700,280205.400,0.000
196620.600,231734.800,549903.800,250594.000,302205.500,265909.000,257532.700,276995.300,0.000
194691.200,229046.900,543563.900,247940.300,298401.800,263196.400,254649.500,273896.800,0.000
192805.100,226795.200,537752.500,245422.100,295146.800,260727.200,252008.700,271062.200,0.000
190833.600,224621.500,531980.400,242869.100,292392.400,258097.500,249552.000,268419.800,0.000
188910.600,222508.300,526367.400,240381.200,289814.900,255410.400,247246.300,265928.100,0.000
187137.600,220506.600,521010.200,238007.900,287360.900,252985.700,245027.300,263540.300,0.000
185722.400,218447.300,516275.100,236047.700,284410.800,250984.400,242841.400,261192.000,0.000
184326.800,216773.900,511964.700,234187.600,281946.600,249186.800,240858.000,259063.300,0.000
182832.500,215154.300,507617.400,232271.500,279924.100,247204.100,239023.800,257089.900,0.000
181367.300,213571.000,503351.300,230385.300,278036.200,245136.500,237304.400,255230.500,0.000
179998.100,212046.300,499228.900,228548.600,276210.000,243264.900,235613.200,253412.100,0.000
178964.700,210452.000,495645.100,227091.900,273880.800,241779.400,233940.800,251617.300,0.000
177924.300,209200.300,492408.600,225698.600,271976.700,240461.700,232429.900,249999.600,0.000
176774.600,207989.900,489085.600,224229.800,270483.000,238954.300,231047.000,248508.200,0.000
175616.700,206774.900,485772.600,222758.500,269074.400,237324.700,229739.300,247089.300,0.000
174547.500,205615.700,482563.700,221323.200,267720.900,235874.200,228450.600,245697.900,0.000
173782.400,204354.700,479820.600,220226.600,265853.400,234763.800,227147.600,244295.600,0.000
173000.800,203412.700,477369.300,219178.200,264361.600,233799.500,225982.900,243048.500,0.000
172101.500,202496.200,474793.700,218037.300,263250.900,232634.200,224926.000,241908.400,0.000
171171.200,201548.200,472176.000,216868.200,262195.700,231318.600,223914.500,240811.100,0.000
170332.900,200656.700,469644.900,215747.000,261201.200,230178.100,222926.700,239748.300,0.000
169778.600,199651.000,467528.300,214937.400,259674.300,229355.800,221906.700,238656.600,0.000
169202.500,198943.900,465672.500,214162.000,258494.300,228658.200,221007.500,237696.700,0.000
168484.200,198237.400,463648.000,213263.000,257655.600,227734.900,220180.300,236807.600,0.000
167747.300,197511.400,461576.800,212342.000,256883.200,226677.500,219411.300,235970.800,0.000
167096.600,196835.600,459565.400,211451.700,256161.500,225779.900,218659.900,235159.500,0.000
166678.500,195996.500,457900.400,210820.100,254870.700,225144.400,217829.900,234271.900,0.000
166253.100,195460.700,456490.300,210235.000,253926.600,224648.400,217127.600,233524.100,0.000
165694.500,194934.400,454910.100,209536.800,253324.700,223935.600,216504.600,232855.000,0.000
165100.200,194370.600,453255.300,208798.900,252764.800,223070.700,215917.100,232212.300,0.000
164568.200,193836.300,451624.300,208066.200,252235.500,222342.100,215325.400,231568.400,0.000
164287.200,193159.700,450338.800,207609.500,251155.700,221888.400,214677.000,230871.300,0.000
163975.200,192758.000,449268.600,207175.300,250386.400,221544.000,214126.400,230286.000,0.000
163525.300,192363.600,448017.100,206619.500,249954.800,220985.300,213645.400,229769.300,0.000
163023.700,191908.200,446663.400,206004.700,249539.800,220248.200,213179.200,229263.000,0.000
162580.300,191483.800,445324.100,205397.000,249156.500,219642.600,212710.300,228757.000,0.000
162379.900,190917.200,444311.000,205055.700,248221.300,219310.500,212184.900,228193.200,0.000
162159.000,190627.400,443518.600,204745.000,247595.200,219095.700,211762.600,227744.300,0.000
161795.100,190338.400,442529.400,204309.800,247299.300,218656.700,211400.000,227353.300,0.000
161399.200,190002.400,441444.700,203832.500,247030.700,218057.300,211066.400,226985.100,0.000
161051.100,189684.300,440352.000,203342.600,246776.900,217574.200,210712.600,226603.000,0.000
160925.300,189200.800,439552.300,203096.700,245955.300,217332.800,210277.900,226141.400,0.000
160784.400,188997.500,438975.300,202883.100,245448.200,217213.800,209948.100,225792.000,0.000
160476.000,188772.100,438170.600,202516.500,245239.200,216851.500,209655.400,225479.200,0.000
160130.000,188497.000,437259.300,202104.600,245048.900,216327.200,209386.300,225181.200,0.000
159834.500,188247.100,436343.900,201684.400,244881.400,215917.800,209101.800,224876.300,0.000
159773.900,187844.200,435729.800,201521.800,244163.600,215761.900,208749.400,224499.600,0.000
159676.700,187690.400,435303.000,201373.400,243720.800,215701.900,208479.900,224215.100,0.000
159443.300,187550.800,434682.500,201103.500,243616.400,215439.400,208278.400,223999.000,0.000
159142.100,187328.300,433920.800,200757.400,243505.700,214979.900,208072.900,223770.200,0.000
158899.500,187142.800,433154.700,200412.500,243431.700,214643.500,207865.600,223542.800,0.000
158868.700,186776.400,432652.900,200294.300,242776.300,214534.900,207565.000,223221.900,0.000
158812.300,186665.800,432347.000,200194.200,242391.500,214530.100,207349.400,222998.400,0.000
158605.300,186556.300,431836.000,199959.700,242331.000,214304.900,207185.900,222827.000,0.000
158359.100,186393.300,431208.100,199679.400,242286.500,213913.300,207045.000,222665.600,0.000
158145.400,186247.500,430551.200,199370.200,242259.200,213621.400,206874.700,222480.900,0.000
158160.400,185936.500,430172.700,199307.500,241678.000,213571.700,206633.300,222224.400,0.000
158156.600,185884.100,429991.400,199271.000,241360.200,213634.800,206483.000,222062.200,0.000
157987.200,185823.700,429588.500,199084.800,241358.700,213463.700,206368.800,221937.500,0.000
157749.300,185675.500,429030.600,198819.700,241339.000,213096.200,206245.000,221796.900,0.000
157562.900,185560.300,428458.400,198547.700,241355.600,212846.100,206115.100,221657.300,0.000
157610.600,185289.100,428170.200,198530.300,240823.600,212835.900,205917.900,221448.200,0.000
157617.400,185253.900,428057.500,198518.500,240533.800,212916.000,205782.200,221309.700,0.000
157485.900,185233.100,427742.100,198380.000,240579.200,212788.600,205712.100,221235.200,0.000
157289.600,185131.600,427280.100,198166.500,240618.000,212469.800,205639.100,221148.200,0.000
157131.300,185054.000,426788.400,197930.300,240681.200,212256.000,205546.500,221043.300,0.000
157170.300,184784.400,426536.300,197906.000,240163.500,212246.900,205349.000,220836.400,0.000
157208.100,184779.600,426496.900,197928.300,239917.000,212361.800,205253.600,220741.200,0.000
157084.800,184773.100,426234.600,197802.200,239984.700,212254.800,205198.100,220679.500,0.000
156911.900,184698.100,425834.800,197618.100,240052.700,211967.400,205154.500,220624.300,0.000
156772.000,184642.100,425396.700,197409.300,240147.100,211781.800,205088.300,220552.900,0.000
156853.600,184413.000,425220.200,197436.800,239677.000,211819.300,204938.900,220392.300,0.000
156899.800,184415.000,425217.600,197477.800,239439.600,211947.600,204853.700,220306.200,0.000
156808.800,184439.500,425015.000,197389.300,239541.100,211876.300,204828.200,220280.400,0.000
156640.500,184366.000,424645.500,197212.000,239610.400,211593.900,204782.600,220223.700,0.000
156508.600,184313.500,424239.400,197008.900,239712.000,211410.900,204716.000,220150.300,0.000
156606.200,184099.200,424102.800,197053.900,239257.500,211461.500,204581.100,220007.500,0.000
156669.600,184117.700,424148.300,197114.500,239036.600,211606.500,204514.600,219941.600,0.000
156567.500,184137.800,423965.300,197017.500,239139.600,211531.600,204485.300,219914.600,0.000
156416.700,184077.300,423638.600,196862.200,239233.700,211272.000,204466.900,219889.100,0.000
156308.300,184058.900,423288.400,196693.000,239376.800,211122.400,204441.500,219859.700,0.000
156413.900,183865.400,423187.300,196751.500,238959.700,211193.200,204332.300,219744.600,0.000
156470.000,183877.200,423248.000,196809.000,238741.000,211337.300,204267.500,219680.300,0.000
156379.600,183913.900,423103.400,196732.000,238860.000,211281.500,204257.400,219668.800,0.000
156241.400,183879.000,422818.700,196595.100,238982.100,211041.200,204254.600,219661.800,0.000
156134.000,183868.500,422488.900,196425.900,239137.100,210899.700,204230.000,219633.700,0.000
156243.100,183683.300,422409.100,196487.500,238721.400,210975.800,204122.300,219513.700,0.000
156319.700,183717.800,422508.600,196566.200,238523.300,211139.600,204075.400,219465.200,0.000
156244.200,183769.200,422386.000,196497.100,238655.500,211100.500,204074.000,219465.500,0.000
156100.600,183723.200,422102.400,196351.500,238760.500,210857.100,204064.000,219450.700,0.000
156020.800,183738.400,421815.300,196214.300,238944.100,210742.400,204067.700,219451.600,0.000
156138.800,183555.000,421756.300,196292.800,238543.800,210822.900,203970.300,219347.600,0.000
156205.500,183573.400,421858.000,196370.000,238333.400,210979.500,203915.700,219295.500,0.000
156146.200,183639.300,421771.500,196329.800,238489.900,210958.700,203938.000,219319.600,0.000
156025.600,183618.500,421530.100,196216.700,238627.100,210741.700,203957.800,219334.300,0.000
155911.800,183611.000,421223.500,196052.300,238789.200,210602.400,203941.200,219313.200,0.000
156027.100,183431.800,421172.900,196128.500,238393.800,210687.000,203850.400,219218.000,0.000
156112.500,183466.400,421303.400,196219.600,238199.300,210860.800,203811.100,219182.100,0.000
156040.600,183524.100,421217.800,196162.500,238346.000,210832.100,203822.300,219192.500,0.000
155919.800,183505.200,420982.400,196044.700,238482.900,210618.600,203840.700,219202.200,0.000
155818.300,183503.800,420693.300,195883.500,238652.500,210486.800,203824.900,219180.700,0.000
155947.000,183331.100,420660.100,195964.300,238270.500,210578.300,203737.600,219088.700,0.000
156048.100,183376.500,420812.700,196070.000,238083.500,210765.300,203711.400,219067.100,0.000
155982.800,183442.800,420741.500,196025.800,238233.500,210744.900,203723.300,219082.900,0.000
155859.400,183422.300,420517.200,195917.400,238369.200,210528.800,203739.800,219097.500,0.000
155762.300,183433.000,420251.600,195772.000,238554.500,210404.800,203735.300,219094.600,0.000
155884.600,183262.900,420226.500,195858.200,238174.300,210494.100,203651.600,219006.100,0.000
155986.600,183313.300,420391.300,195971.400,237992.000,210684.600,203631.500,218988.500,0.000
155921.700,183380.700,420329.800,195926.500,238144.500,210665.000,203646.800,219007.000,0.000
155808.100,183366.800,420118.600,195821.300,238287.400,210456.500,203671.400,219027.900,0.000
155724.700,183391.100,419864.700,195684.900,238486.200,210348.200,203682.500,219037.200,0.000
155848.400,183220.200,419839.000,195770.400,238111.200,210437.000,203600.300,218948.800,0.000
155947.400,183259.100,420003.300,195881.100,237920.700,210622.900,203575.900,218928.300,0.000
155869.800,183313.400,419935.700,195829.300,238060.200,210599.800,203583.100,218937.800,0.000
155754.600,183303.200,419735.500,195730.600,238209.300,210400.100,203613.900,218964.500,0.000
155678.700,183339.400,419501.400,195604.200,238424.100,210303.600,203639.500,218984.100,0.000
155807.400,183179.300,419491.800,195691.900,238058.700,210400.200,203565.400,218904.000,0.000
155914.500,183223.100,419667.200,195803.900,237870.300,210588.500,203542.800,218882.500,0.000
155869.300,183306.500,419637.300,195775.500,238044.200,210592.400,203575.000,218918.900,0.000
155755.900,183287.600,419436.100,195671.200,238185.100,210381.200,203595.900,218936.600,0.000
155667.000,183309.200,419192.400,195532.700,238384.400,210264.800,203603.000,218945.100,0.000
155776.800,183128.800,419163.200,195602.700,238008.400,210341.600,203507.400,218850.200,0.000
155881.600,183169.200,419338.800,195719.000,237817.100,210530.400,203482.400,218830.600,0.000
155838.100,183253.000,419314.800,195693.600,237986.200,210532.100,203514.300,218866.800,0.000
155732.800,183243.000,419126.300,195600.000,238132.700,210331.600,203544.700,218895.200,0.000
155648.700,183275.500,418895.600,195469.700,238345.500,210226.300,203560.000,218909.000,0.000
155770.200,183117.000,418890.400,195557.000,237991.500,210322.100,203489.300,218830.700,0.000
155862.700,183155.800,419064.900,195666.100,237792.700,210508.400,203461.100,218805.200,0.000
155805.300,183237.600,419036.000,195635.600,237954.500,210509.800,203488.500,218837.300,0.000
155680.800,183213.700,418835.400,195527.600,238085.100,210297.800,203506.300,218850.700,0.000
155586.100,183235.100,418596.100,195386.900,238290.400,210182.000,203516.000,218859.200,0.000
155725.100,183081.600,418600.400,195488.300,237944.300,210283.600,203455.100,218793.500,0.000
155834.200,183119.500,418786.100,195607.900,237747.200,210470.200,203432.900,218774.100,0.000
155776.200,183189.700,418749.100,195564.600,237900.400,210463.700,203446.200,218791.300,0.000
155679.800,183184.600,418573.900,195477.600,238050.700,210272.400,203480.000,218822.600,0.000
155600.600,183220.400,418351.500,195347.500,238271.200,210166.600,203498.300,218840.200,0.000
155721.900,183052.400,418338.500,195427.500,237909.800,210251.800,203417.300,218754.800,0.000
155825.500,183088.200,418526.100,195545.200,237706.400,210436.200,203389.300,218731.100,0.000
155773.200,183171.800,418507.300,195516.900,237873.100,210443.700,203413.400,218760.300,0.000
155676.200,183172.200,418341.200,195439.800,238034.700,210258.300,203456.000,218798.500,0.000
155586.400,183200.600,418111.800,195306.100,238248.500,210146.800,203470.000,218813.300,0.000
155711.600,183043.400,418108.800,195391.800,237899.100,210238.700,203400.100,218739.500,0.000
155821.400,183085.000,418304.700,195514.800,237701.600,210430.600,203382.900,218724.200,0.000
155767.400,183171.500,418288.100,195481.600,237867.200,210436.200,203408.400,218751.800,0.000
155679.500,183183.100,418135.700,195408.600,238035.700,210261.600,203462.600,218801.100,0.000
155578.100,183206.700,417899.200,195263.200,238244.000,210142.200,203470.800,218808.100,0.000
155692.400,183035.900,417885.500,195343.000,237887.000,210226.200,203394.700,218726.900,0.000
155813.800,183083.500,418089.100,195479.500,237687.900,210427.400,203385.200,218719.300,0.000
155764.300,183170.200,418079.500,195452.300,237854.700,210434.900,203410.800,218752.400,0.000
155657.900,183156.500,417904.800,195360.900,237995.700,210237.300,203438.500,218777.600,0.000
155574.900,183194.200,417687.800,195235.600,238215.700,210132.700,203460.200,218795.400,0.000
155690.700,183027.300,417678.400,195318.300,237866.200,210215.600,203384.200,218711.700,0.000
155808.800,183068.000,417879.400,195447.500,237663.200,210408.900,203364.300,218696.100,0.000
155761.100,183153.300,417871.100,195420.700,237831.800,210415.400,203390.500,218726.500,0.000
155664.600,183147.600,417707.700,195339.000,237982.700,210226.300,203428.900,218759.800,0.000
155575.700,183181.600,417486.200,195204.700,238199.100,210114.800,203446.300,218777.300,0.000
155689.300,183013.700,417480.600,195287.100,237851.200,210195.400,203373.400,218701.900,0.000
155796.700,183047.300,417682.800,195414.500,237646.100,210385.100,203354.400,218686.200,0.000
155744.700,183138.400,417678.100,195389.900,237814.200,210400.500,203386.000,218721.900,0.000
155628.100,183118.800,417501.900,195296.000,237948.900,210197.300,203411.600,218744.400,0.000
155526.500,183146.700,417274.200,195154.700,238160.800,210077.800,203424.000,218755.500,0.000
155630.100,182974.000,417257.600,195224.300,237808.600,210152.800,203343.100,218669.300,0.000
155750.700,183015.100,417468.200,195357.000,237607.200,210350.000,203330.300,218661.200,0.000
155722.900,183124.600,417480.800,195347.800,237790.800,210381.200,203376.800,218713.700,0.000
155631.900,183124.500,417324.200,195272.300,237941.300,210198.000,203422.600,218753.700,0.000
155537.400,183151.600,417096.500,195129.700,238155.300,210077.600,203432.500,218763.500,0.000
155646.600,182978.100,417074.400,195199.700,237799.600,210146.500,203347.700,218677.100,0.000
155769.600,183016.500,417283.000,195338.100,237589.800,210339.500,203331.600,218665.400,0.000
155721.000,183106.000,417282.600,195313.800,237755.400,210352.300,203357.800,218699.400,0.000
155620.500,183095.100,417120.100,195230.300,237893.900,210158.800,203392.600,218729.200,0.000
155546.900,183150.200,416923.400,195114.700,238141.600,210067.300,203433.600,218769.000,0.000
155653.100,182984.100,416909.600,195187.300,237799.200,210146.000,203359.100,218688.000,0.000
155752.000,183004.600,417098.600,195302.700,237571.800,210324.800,203325.700,218656.200,0.000
155715.900,183110.100,417109.700,195287.300,237751.000,210356.700,203368.000,218701.800,0.000
155607.000,183093.700,416941.800,195194.800,237890.000,210160.200,203397.800,218724.800,0.000
155513.000,183130.700,416724.600,195058.500,238118.400,210045.800,203417.300,218742.400,0.000
155635.700,182976.900,416725.600,195145.200,237789.800,210136.200,203352.900,218674.200,0.000
155748.400,183005.500,416935.300,195275.200,237569.400,210328.900,203330.100,218655.000,0.000
155694.500,183090.800,416935.300,195247.200,237733.000,210340.900,203352.500,218684.700,0.000
155592.600,183081.500,416778.800,195168.800,237881.700,210153.100,203391.400,218722.600,0.000
155511.800,183133.100,416574.600,195048.700,238126.300,210054.200,203427.600,218758.500,0.000
155627.900,182976.500,416566.300,195127.400,237797.300,210136.400,203359.100,218687.800,0.000
155743.300,183002.600,416770.600,195253.900,237574.700,210321.700,203329.600,218665.900,0.000
155698.300,183094.100,416776.400,195224.100,237741.300,210338.800,203352.300,218693.200,0.000
155598.200,183080.000,416614.000,195137.200,237877.400,210146.100,203382.500,218721.500,0.000
155515.700,183127.100,416411.000,195011.900,238109.500,210039.300,203408.800,218748.700,0.000
155632.400,182969.600,416406.400,195096.000,237777.500,210119.500,203338.900,218676.200,0.000
155755.300,183000.800,416620.100,195232.200,237559.500,210312.100,203320.300,218659.700,0.000
155705.400,183089.000,416623.300,195201.400,237716.500,210325.400,203343.600,218684.700,0.000
155596.800,183072.000,416457.600,195111.400,237850.600,210128.100,203373.100,218707.800,0.000
155501.400,183110.800,416239.800,194974.400,238076.300,210015.000,203392.900,218727.400,0.000
155622.200,182961.000,416240.400,195060.700,237760.300,210103.600,203331.700,218664.200,0.000
155740.200,182986.500,416455.500,195196.300,237534.100,210292.900,203306.700,218643.200,0.000
155699.400,183085.000,416469.900,195174.000,237699.200,210314.800,203333.100,218676.000,0.000
155601.000,183071.000,416313.100,195092.200,237838.800,210124.400,203364.900,218704.000,0.000
155500.700,183102.500,416096.800,194948.100,238059.100,210004.300,203375.800,218712.200,0.000
155622.100,182953.900,416102.500,195033.400,237747.700,210096.200,203313.300,218644.500,0.000
155756.000,182994.400,416330.300,195184.600,237539.800,210307.000,203307.500,218637.700,0.000
155704.200,183088.600,416339.100,195157.600,237704.400,210330.200,203333.500,218665.800,0.000
155593.000,183069.700,416178.600,195068.400,237835.500,210135.900,203363.700,218689.500,0.000
155496.100,183110.100,415969.200,194932.100,238065.700,210018.400,203383.200,218707.500,0.000
155609.200,182954.300,415962.100,195009.700,237749.700,210099.600,203316.300,218636.600,0.000
155726.400,182974.900,416175.600,195143.800,237523.900,210292.300,203293.500,218614.200,0.000
155702.200,183091.600,416211.800,195139.900,237712.200,210336.900,203342.000,218665.500,0.000
155606.700,183082.000,416064.900,195060.100,237852.300,210152.200,203381.400,218700.100,0.000
155496.400,183110.100,415838.300,194902.300,238067.300,210023.400,203385.200,218702.300,0.000
155615.200,182962.900,415837.500,194979.400,237756.900,210108.100,203322.900,218633.500,0.000
155730.800,182979.800,416047.200,195111.300,237522.200,210291.300,203291.400,218605.100,0.000
155697.800,183087.700,416074.600,195102.500,237698.400,210327.600,203329.500,218647.900,0.000
155603.400,183077.200,415930.300,195026.500,237841.500,210142.300,203367.500,218680.800,0.000
155508.800,183123.300,415722.100,194893.400,238075.000,210028.700,203388.700,218704.000,0.000
155617.700,182973.000,415713.200,194967.700,237764.400,210107.400,203322.200,218635.800,0.000
155740.000,182993.400,415931.400,195108.400,237534.000,210300.600,203301.500,218617.100,0.000
155696.100,183094.700,415951.300,195086.200,237701.800,210330.300,203327.400,218650.300,0.000
155597.000,183077.000,415800.300,195005.600,237839.000,210141.500,203361.400,218679.500,0.000
155505.700,183125.100,415593.500,194870.700,238075.100,210030.600,203387.900,218702.600,0.000
155604.300,182957.400,415571.600,194930.100,237753.300,210098.800,203308.700,218618.500,0.000
155740.300,182986.200,415800.800,195082.100,237528.000,210300.600,203296.800,218610.500,0.000
155706.700,183090.600,415828.600,195067.800,237699.100,210335.700,203328.300,218648.200,0.000
155604.300,183069.100,415673.900,194984.200,237827.100,210140.700,203355.600,218671.200,0.000
155509.000,183114.400,415465.600,194848.600,238062.700,210029.000,203380.300,218694.700,0.000
155614.500,182962.500,415453.300,194916.200,237753.600,210104.700,203310.000,218622.100,0.000
155748.800,182988.800,415681.100,195065.700,237526.200,210303.600,203294.800,218612.200,0.000
155715.800,183098.300,415711.100,195050.600,237700.000,210343.000,203330.600,218652.200,0.000
155610.700,183082.100,415558.600,194967.700,237832.900,210149.900,203361.900,218678.300,0.000
155493.900,183110.700,415333.900,194810.900,238051.800,210014.700,203363.400,218682.300,0.000
155613.400,182968.500,415334.300,194890.600,237758.300,210099.300,203302.500,218618.700,0.000
155735.800,182979.300,415552.400,195031.300,237515.300,210285.600,203273.400,218593.900,0.000
155692.800,183075.500,415576.200,195013.300,237677.200,210317.500,203300.700,218628.000,0.000
155599.400,183067.000,415436.700,194945.000,237820.200,210138.400,203342.500,218667.000,0.000
155502.100,183116.000,415232.200,194811.600,238063.000,210026.500,203370.600,218695.700,0.000
155606.100,182965.400,415219.300,194877.800,237762.600,210102.100,203307.600,218627.500,0.000
155736.500,182987.100,415446.500,195026.400,237525.700,210302.100,203293.500,218613.200,0.000
155713.500,183111.400,415496.400,195028.300,237710.300,210356.100,203342.000,218666.300,0.000
155612.500,183092.900,415348.000,194947.300,237839.200,210164.200,203372.200,218692.600,0.000
155499.700,183118.700,415125.100,194789.600,238061.300,210026.800,203376.500,218697.800,0.000
155597.900,182956.000,415101.500,194845.300,237750.900,210087.900,203296.600,218615.800,0.000
155735.200,182974.900,415330.200,194995.600,237511.700,210286.000,203277.700,218599.300,0.000
155707.900,183086.200,415369.500,194988.700,237687.500,210333.300,203314.300,218640.100,0.000
155605.100,183064.200,415217.600,194907.900,237808.600,210139.300,203342.700,218663.600,0.000
155516.400,183121.800,415018.800,194777.900,238055.800,210030.700,203376.400,218696.200,0.000
155621.600,182973.200,415005.900,194842.900,237761.400,210105.600,203312.900,218628.800,0.000
155745.800,182984.900,415229.400,194982.400,237515.500,210295.300,203286.500,218603.700,0.000
155713.300,183095.000,415267.200,194974.000,237686.000,210339.900,203322.800,218645.300,0.000
155619.200,183079.800,415126.700,194903.600,237816.700,210153.300,203362.000,218679.500,0.000
155514.000,183121.800,414914.800,194758.300,238050.800,210024.900,203379.100,218696.200,0.000
155614.500,182969.300,414895.200,194818.500,237754.800,210090.000,203306.600,218623.600,0.000
155745.300,182983.500,415124.600,194968.700,237509.700,210282.900,203285.200,218604.800,0.000
155702.500,183083.500,415154.400,194954.500,237667.300,210316.200,203310.300,218635.900,0.000
155605.400,183065.200,415010.000,194881.600,237798.600,210128.800,203347.600,218671.500,0.000
155516.400,183122.800,414812.600,194753.300,238051.400,210020.200,203384.700,218706.600,0.000
155605.900,182961.600,414782.600,194804.800,237744.300,210079.200,203305.000,218623.400,0.000
155747.700,182987.100,415022.800,194965.400,237509.500,210287.400,203292.000,218614.200,0.000
155715.100,183095.800,415064.000,194957.600,237681.400,210331.300,203327.000,218655.800,0.000
155606.600,183070.800,414912.500,194871.500,237803.000,210129.900,203349.500,218674.700,0.000
155513.300,183125.300,414712.800,194737.900,238041.400,210012.000,203375.800,218702.300,0.000
155619.900,182980.700,414703.300,194804.500,237757.500,210087.500,203313.400,218639.000,0.000
155754.700,182988.800,414931.500,194955.700,237508.400,210284.700,203290.800,218618.800,0.000
155712.100,183083.600,414957.100,194934.800,237661.000,210317.500,203312.200,218645.000,0.000
155599.300,183048.600,414799.500,194844.700,237775.700,210113.200,203332.800,218661.200,0.000
155508.000,183106.900,414604.900,194714.800,238028.100,210002.200,203366.400,218693.600,0.000
155615.600,182965.900,414592.800,194783.500,237747.400,210076.900,203305.700,218630.400,0.000
155739.000,182967.200,414811.500,194927.300,237490.300,210264.800,203276.000,218602.800,0.000
155702.600,183076.400,414851.300,194918.200,237654.400,210314.500,203308.200,218642.800,0.000
155605.800,183060.500,414713.800,194845.400,237784.800,210127.800,203341.800,218673.000,0.000
155507.800,183112.500,414514.800,194711.100,238031.200,210010.600,203370.600,218698.000,0.000
155602.200,182962.700,414489.500,194766.300,237743.400,210076.100,203300.700,218622.300,0.000
155735.300,182969.900,414715.400,194917.900,237488.300,210269.900,203276.400,218598.500,0.000
155694.100,183071.100,414752.400,194901.800,237646.400,210308.600,203302.500,218633.000,0.000
155597.100,183056.300,414616.800,194831.200,237782.700,210125.500,203342.000,218666.500,0.000
155497.000,183107.700,414412.600,194693.900,238029.500,210004.800,203368.500,218692.500,0.000
155599.500,182963.900,414393.100,194753.700,237750.000,210075.000,203304.800,218628.300,0.000
155737.800,182970.300,414624.600,194906.000,237491.300,210268.800,203281.700,218610.400,0.000
155707.500,183081.700,414669.400,194896.400,237652.500,210317.900,203311.900,218647.100,0.000
155604.900,183061.800,414527.100,194817.700,237782.700,210128.800,203340.600,218670.100,0.000
155499.400,183109.200,414319.700,194675.300,238022.000,210006.000,203363.000,218692.400,0.000
155608.500,182974.300,414310.200,194741.300,237752.900,210084.600,203308.400,218630.900,0.000
155737.200,182973.000,414531.400,194884.700,237485.300,210269.700,203277.600,218598.800,0.000
155713.900,183095.200,414585.700,194882.700,237658.300,210330.200,203318.100,218645.200,0.000
155611.300,183069.300,414444.700,194803.200,237785.000,210138.200,203343.000,218667.000,0.000
155516.800,183119.200,414246.800,194669.000,238032.400,210014.600,203369.900,218695.500,0.000
155612.400,182967.100,414217.400,194719.400,237748.600,210074.300,203299.800,218620.500,0.000
155741.400,182959.900,414439.200,194864.700,237478.400,210257.100,203266.900,218589.300,0.000
155710.100,183072.800,414490.200,194861.600,237641.400,210309.300,203301.900,218631.500,0.000
155615.400,183058.000,414357.900,194794.400,237773.000,210129.300,203338.800,218666.200,0.000
155517.500,183117.000,414160.200,194659.800,238032.700,210016.700,203373.600,218699.400,0.000
155608.200,182964.800,414129.400,194709.300,237757.200,210077.600,203305.600,218626.900,0.000
155743.500,182963.300,414358.300,194859.700,237490.300,210270.100,203280.100,218604.000,0.000
155699.700,183066.700,414397.200,194837.800,237642.900,210315.200,203301.600,218631.200,0.000
155603.700,183055.400,414266.300,194767.800,237776.400,210136.900,203337.900,218662.900,0.000
155509.800,183118.300,414075.300,194639.200,238035.700,210023.100,203373.600,218698.600,0.000
155594.800,182960.600,414037.600,194682.500,237748.600,210073.600,203297.300,218616.800,0.000
155729.000,182954.800,414264.000,194830.700,237475.500,210259.400,203266.600,218588.300,0.000
155697.800,183068.600,414312.800,194818.300,237633.400,210311.300,203294.000,218620.500,0.000
155614.000,183063.000,414193.000,194756.000,237774.100,210140.300,203338.800,218658.200,0.000
155508.100,183113.100,413991.300,194615.000,238021.800,210013.200,203363.800,218682.600,0.000
155604.600,182970.000,413965.000,194672.000,237752.900,210078.200,203301.900,218615.200,0.000
155740.500,182967.200,414193.100,194826.800,237482.700,210266.900,203273.600,218589.200,0.000
155702.500,183075.100,414240.200,194814.200,237640.000,210313.800,203295.400,218619.600,0.000
155604.400,183054.000,414105.500,194742.500,237768.100,210131.300,203327.800,218648.500,0.000
155515.700,183119.600,413913.900,194614.600,238029.500,210018.800,203367.100,218685.700,0.000
155608.600,182973.700,413881.700,194661.600,237761.400,210074.900,203299.300,218614.600,0.000
155756.300,182978.100,414118.900,194819.900,237491.400,210274.800,203275.400,218593.400,0.000
155714.800,183078.200,414160.400,194802.400,237640.500,210320.500,203295.700,218618.900,0.000
155604.100,183048.200,414016.800,194724.200,237759.600,210130.100,203325.000,218640.600,0.000
155488.200,183093.200,413807.600,194576.500,238003.500,209998.600,203344.000,218658.300,0.000
155593.000,182962.600,413792.300,194641.600,237756.600,210073.800,203295.900,218607.700,0.000
155731.100,182953.600,414021.300,194796.800,237480.700,210263.100,203266.600,218582.400,0.000
155699.900,183065.100,414071.100,194785.500,237635.000,210319.900,203292.800,218614.000,0.000
155610.000,183052.200,413943.900,194720.000,237768.300,210142.100,203331.100,218647.500,0.000
155505.500,183110.500,413745.400,194579.900,238021.700,210020.100,203362.300,218678.000,0.000
155600.700,182973.400,413721.300,194633.300,237767.900,210085.700,203306.700,218617.900,0.000
155743.700,182968.400,413956.200,194792.100,237492.500,210279.800,203285.200,218595.500,0.000
155700.700,183070.300,414000.600,194773.700,237639.800,210326.900,203303.700,218619.400,0.000
155602.600,183048.200,413868.000,194701.900,237771.700,210143.900,203335.000,218645.400,0.000
155497.600,183099.400,413665.100,194561.400,238027.300,210016.900,203362.200,218671.500,0.000
155597.800,182963.400,413636.800,194616.700,237771.900,210077.500,203304.100,218611.200,0.000
155743.200,182956.100,413869.200,194774.500,237487.600,210267.400,203275.500,218585.100,0.000
155721.700,183081.200,413936.500,194775.600,237651.500,210335.200,203311.500,218628.500,0.000
155623.400,183061.600,413804.500,194706.900,237777.500,210151.900,203341.600,218655.700,0.000
155520.400,183123.000,413610.000,194570.700,238039.400,210030.400,203375.000,218687.200,0.000
155592.500,182969.300,413560.600,194601.300,237767.900,210072.300,203298.400,218607.200,0.000
155738.700,182959.700,413796.100,194764.000,237483.600,210264.500,203274.300,218586.600,0.000
155710.900,183074.300,413855.200,194757.500,237640.500,210322.600,203300.200,218620.200,0.000
155605.900,183040.100,413713.200,194676.300,237757.400,210128.500,203320.800,218637.900,0.000
155516.000,183107.600,413526.800,194549.400,238026.300,210015.600,203364.100,218680.200,0.000
155598.000,182960.000,413484.000,194587.700,237765.700,210063.600,203294.000,218608.400,0.000
155731.100,182939.300,413704.300,194737.600,237468.800,210243.000,203254.500,218574.200,0.000
155706.600,183064.100,413769.700,194737.200,237633.900,210314.400,203289.000,218612.700,0.000
155617.600,183053.700,413647.900,194675.900,237767.700,210144.300,203330.500,218646.900,0.000
155505.400,183106.500,413443.300,194532.300,238016.800,210014.000,203352.900,218669.300,0.000
155593.500,182965.900,413407.900,194581.700,237771.700,210074.000,203297.400,218610.300,0.000
155728.400,182938.900,413630.100,194731.500,237474.000,210254.300,203264.800,218576.800,0.000
155717.700,183071.900,413709.500,194739.800,237643.700,210334.300,203310.700,218628.600,0.000
155629.000,183059.700,413586.500,194675.000,237776.300,210161.800,203351.400,218663.400,0.000
155511.700,183107.600,413376.700,194524.500,238021.000,210024.100,203371.500,218678.400,0.000
155595.700,182965.300,413336.400,194566.100,237772.900,210077.600,203309.300,218611.300,0.000
155737.000,182947.200,413566.500,194724.500,237480.000,210266.300,203276.300,218581.400,0.000
155710.800,183070.500,413631.300,194723.400,237639.700,210335.100,203307.500,218619.200,0.000
155607.800,183047.300,413495.300,194650.100,237762.600,210152.700,203338.200,218644.900,0.000
155490.000,183098.900,413291.700,194501.400,238019.000,210022.000,203364.600,218668.100,0.000
155575.700,182962.700,413253.700,194545.000,237776.000,210075.500,203302.800,218604.200,0.000
155727.900,182949.800,413489.400,194711.100,237482.600,210267.000,203275.900,218581.400,0.000
155703.700,183069.100,413555.400,194707.600,237639.400,210332.600,203301.500,218615.300,0.000
155608.700,183046.000,413425.600,194640.000,237761.700,210148.900,203330.600,218640.200,0.000
155506.700,183106.700,413233.000,194508.100,238024.300,210022.600,203364.100,218674.300,0.000
155591.900,182969.300,413191.600,194551.700,237783.600,210075.300,203304.000,218614.200,0.000
155746.700,182958.200,413433.900,194724.200,237494.400,210273.200,203285.700,218598.300,0.000
155721.600,183080.000,413508.500,194729.500,237657.000,210348.500,203321.300,218640.000,0.000
155611.200,183048.400,413372.000,194654.600,237777.700,210159.100,203346.000,218658.600,0.000
155501.200,183107.500,413174.900,194513.500,238040.100,210033.100,203379.300,218689.800,0.000
155586.600,182971.700,413133.000,194550.400,237802.100,210085.800,203322.900,218625.800,0.000
155727.100,182945.700,413356.900,194701.200,237489.900,210264.900,203282.800,218587.400,0.000
155710.100,183074.900,413429.100,194703.500,237648.300,210338.800,203313.800,218627.900,0.000
155618.200,183053.600,413301.600,194634.800,237771.300,210155.000,203342.000,218653.000,0.000
155516.500,183110.600,413108.800,194493.800,238029.900,210022.700,203368.100,218681.300,0.000
155593.700,182963.300,413056.400,194526.500,237783.800,210064.800,203299.300,218612.200,0.000
155740.200,182939.600,413290.700,194693.600,237482.300,210253.400,203269.500,218585.000,0.000
155723.000,183071.300,413372.900,194703.900,237644.700,210335.100,203308.000,218631.700,0.000
155625.600,183051.200,413249.700,194636.300,237766.600,210153.900,203339.200,218661.800,0.000
155509.200,183103.700,413047.200,194488.900,238023.200,210017.400,203364.800,218685.500,0.000
155594.000,182969.600,412999.200,194525.300,237792.200,210070.600,203308.200,218623.700,0.000
155740.700,182942.200,413225.800,194682.600,237483.400,210258.800,203276.600,218591.000,0.000
155722.500,183072.300,413304.300,194687.100,237645.500,210339.800,203313.500,218632.300,0.000
155605.800,183031.400,413159.200,194599.500,237752.500,210140.500,203323.800,218638.300,0.000
155513.000,183105.000,412980.500,194473.500,238028.000,210023.000,203368.500,218681.400,0.000
155603.800,182981.900,412948.000,194522.800,237809.000,210087.700,203323.500,218630.600,0.000
155737.800,182947.800,413170.500,194680.300,237495.100,210268.100,203286.400,218595.700,0.000
155715.900,183073.400,413247.700,194686.500,237651.800,210346.600,203319.900,218638.300,0.000
155614.500,183045.200,413119.700,194616.000,237772.900,210163.300,203350.600,218662.300,0.000
155497.600,183092.500,412910.600,194465.100,238024.100,210019.100,203373.200,218683.600,0.000
155580.900,182960.000,412861.900,194502.700,237799.200,210067.600,203315.900,218624.000,0.000
155727.600,182928.600,413081.400,194660.200,237481.800,210248.100,203276.700,218586.600,0.000
155699.200,183043.700,413146.800,194650.400,237624.600,210312.400,203294.600,218614.200,0.000
155611.800,183028.900,413031.800,194591.700,237753.500,210138.900,203332.800,218647.800,0.000
155511.600,183100.400,412847.400,194462.000,238022.800,210015.100,203371.700,218687.200,0.000
155603.100,182980.700,412817.300,194512.800,237811.700,210078.400,203328.800,218641.900,0.000
155738.300,182942.500,413039.200,194667.900,237492.400,210253.800,203283.800,218597.900,0.000
155705.700,183057.300,413105.300,194654.900,237631.200,210316.900,203298.000,218621.400,0.000
155606.400,183031.000,412978.300,194579.600,237748.500,210134.900,203322.800,218643.200,0.000
155507.300,183099.200,412789.900,194444.900,238015.100,210014.000,203360.700,218678.000,0.000
155595.700,182980.000,412747.000,194484.200,237800.500,210070.300,203311.700,218626.400,0.000
155734.200,182939.100,412963.300,194636.000,237471.700,210245.300,203265.000,218578.400,0.000
155716.800,183065.400,413042.400,194642.000,237623.400,210323.600,203294.600,218615.800,0.000
155626.400,183046.100,412924.700,194583.400,237755.200,210148.700,203333.000,218650.400,0.000
155518.900,183106.200,412732.200,194447.000,238017.400,210019.100,203368.700,218683.700,0.000
155598.200,182974.800,412685.100,194486.000,237803.100,210069.700,203317.200,218633.300,0.000
155721.600,182920.500,412890.700,194629.300,237466.000,210235.800,203266.100,218582.300,0.000
155703.500,183052.800,412974.200,194638.900,237623.500,210324.100,203301.800,218624.300,0.000
155609.400,183030.300,412854.900,194577.000,237754.700,210149.500,203337.700,218657.100,0.000
155488.800,183079.500,412647.600,194427.500,238004.400,210003.400,203358.900,218678.900,0.000
155569.100,182956.200,412601.400,194464.600,237800.000,210056.600,203309.100,218625.600,0.000
155710.400,182916.100,412819.700,194620.600,237472.900,210238.000,203268.200,218583.400,0.000
155700.000,183050.000,412910.400,194629.000,237628.100,210324.200,203302.700,218622.400,0.000
155614.700,183033.800,412795.400,194569.100,237752.300,210149.500,203336.500,218653.500,0.000
155504.800,183093.900,412601.100,194425.600,238011.100,210014.400,203364.300,218683.800,0.000
155574.300,182961.000,412544.900,194452.400,237795.100,210053.800,203304.400,218621.400,0.000
155737.500,182940.600,412787.500,194629.600,237487.800,210249.500,203280.700,218597.400,0.000
155713.700,183061.300,412860.300,194621.200,237621.500,210316.800,203292.800,218621.000,0.000
155622.500,183042.700,412740.500,194555.700,237744.200,210139.800,203324.300,218649.100,0.000
155515.700,183103.100,412550.100,194418.700,238006.700,210006.100,203359.500,218685.100,0.000
155595.500,182977.500,412500.800,194454.700,237806.000,210052.700,203310.200,218631.400,0.000
155735.900,182929.900,412718.000,194609.800,237470.300,210227.000,203263.900,218587.100,0.000
155711.500,183052.700,412795.000,194608.900,237609.000,210305.500,203283.700,218611.300,0.000
155622.500,183039.300,412681.000,194553.500,237738.400,210138.800,203321.800,218644.100,0.000
155503.000,183099.100,412482.200,194408.100,237999.000,210002.900,203352.100,218673.200,0.000
155588.400,182988.500,412437.300,194448.900,237810.300,210062.800,203313.200,218626.800,0.000
155729.200,182938.000,412651.900,194603.000,237469.700,210236.000,203267.100,218579.200,0.000
155720.200,183073.100,412743.700,194613.400,237624.500,210325.700,203302.400,218622.500,0.000
155615.900,183043.000,412613.000,194536.500,237740.000,210139.100,203323.300,218640.800,0.000
155498.800,183099.500,412414.000,194391.400,238001.700,210002.500,203355.200,218672.200,0.000
155582.300,182984.500,412366.800,194430.900,237814.200,210056.800,203315.800,218629.400,0.000
155733.400,182943.600,412592.800,194597.300,237485.700,210236.600,203278.800,218594.800,0.000
155707.000,183065.500,412668.300,194593.100,237623.300,210313.000,203296.300,218617.900,0.000
155614.300,183047.600,412551.200,194534.000,237751.300,210141.400,203330.100,218651.000,0.000
155509.400,183114.300,412366.900,194405.500,238027.800,210014.400,203374.200,218696.300,0.000
155567.200,182967.200,412293.100,194417.600,237811.300,210039.400,203305.400,218627.100,0.000
155718.700,182920.900,412516.500,194578.700,237470.200,210218.000,203261.400,218581.600,0.000
155724.000,183068.700,412622.000,194601.700,237630.700,210325.100,203305.300,218632.200,0.000
155620.500,183036.800,412492.000,194525.400,237739.400,210138.500,203321.700,218642.000,0.000
155498.500,183090.700,412287.000,194372.800,237990.000,209992.900,203343.300,218661.800,0.000
155572.900,182974.000,412235.900,194401.100,237800.300,210037.000,203292.600,218609.500,0.000
155729.000,182929.100,412471.100,194572.200,237473.100,210218.400,203257.300,218579.600,0.000
155721.000,183067.400,412568.800,194584.600,237618.800,210314.800,203291.000,218619.600,0.000
155618.900,183039.100,412443.600,194514.700,237736.700,210132.600,203311.800,218640.700,0.000
155516.400,183111.100,412261.100,194386.700,238013.000,210007.900,203356.700,218683.800,0.000
155573.600,182974.800,412188.900,194398.300,237813.300,210039.300,203296.600,218619.300,0.000
155722.500,182925.500,412412.200,194562.800,237476.000,210219.500,203256.100,218578.000,0.000
155733.000,183079.800,412526.300,194594.200,237639.800,210334.600,203310.500,218638.000,0.000
155632.400,183049.900,412401.400,194521.500,237752.000,210152.900,203331.500,218656.300,0.000
155508.700,183100.200,412197.800,194367.900,238006.700,210003.400,203354.900,218678.800,0.000
155575.000,182982.200,412135.600,194389.000,237822.000,210043.600,203306.200,218627.000,0.000
155740.400,182952.200,412377.100,194570.000,237502.200,210241.100,203282.700,218603.800,0.000
155719.600,183070.000,412461.900,194571.200,237634.900,210321.800,203302.400,218627.700,0.000
155626.800,183047.500,412342.700,194507.400,237754.000,210147.400,203332.000,218651.800,0.000
155513.300,183107.600,412147.500,194367.100,238017.500,210008.100,203363.800,218685.500,0.000
155585.000,182988.300,412088.800,194392.300,237835.400,210051.100,203315.600,218636.500,0.000
155731.600,182935.000,412310.100,194551.200,237489.600,210225.900,203268.600,218590.700,0.000
155711.000,183059.400,412394.900,194549.500,237624.000,210309.900,203287.400,218617.600,0.000
155619.500,183039.400,412276.800,194484.100,237743.200,210138.400,203317.100,218641.100,0.000
155517.200,183110.800,412093.000,194352.100,238017.100,210007.100,203359.800,218684.000,0.000
155595.200,183004.000,412036.000,194380.200,237843.200,210052.700,203316.000,218641.300,0.000
155738.200,182947.200,412253.100,194536.700,237491.900,210228.100,203266.400,218591.500,0.000
155722.900,183075.800,412349.800,194543.800,237630.500,210322.100,203292.700,218621.500,0.000
155627.000,183051.600,412235.400,194482.400,237750.000,210149.800,203323.200,218650.200,0.000
155511.600,183111.300,412042.600,194342.800,238016.000,210012.000,203359.000,218683.600,0.000
155577.900,182993.800,411975.600,194362.600,237839.000,210051.600,203313.000,218631.500,0.000
155717.300,182928.500,412186.000,194516.800,237480.700,210221.900,203258.500,218577.100,0.000
155710.000,183068.000,412289.400,194532.000,237623.400,210325.700,203292.000,218617.100,0.000
155635.300,183070.500,412196.100,194489.300,237769.300,210178.300,203345.400,218663.700,0.000
155527.100,183139.900,412012.100,194355.700,238038.800,210045.500,203385.500,218701.800,0.000
155576.700,183006.800,411928.400,194354.800,237848.600,210067.300,203319.200,218634.500,0.000
155726.500,182949.100,412145.300,194516.200,237499.500,210243.900,203270.900,218588.100,0.000
155727.000,183089.800,412255.000,194539.000,237648.400,210350.400,203309.300,218634.000,0.000
155637.300,183063.300,412143.200,194479.800,237769.000,210177.800,203342.000,218664.400,0.000
155513.400,183111.800,411942.000,194329.800,238024.300,210024.400,203366.500,218687.900,0.000
155565.800,182984.400,411857.700,194333.900,237841.700,210048.500,203306.900,218627.600,0.000
155718.900,182929.000,412081.200,194501.300,237491.600,210227.000,203263.900,218586.800,0.000
155705.100,183059.400,412180.600,194510.500,237624.100,210320.200,203287.300,218616.500,0.000
155618.000,183045.400,412072.800,194455.400,237749.800,210154.400,203322.200,218648.500,0.000
155522.700,183123.900,411898.700,194332.700,238029.600,210026.800,203371.600,218697.000,0.000
155579.200,183000.500,411817.700,194342.000,237850.900,210051.300,203315.400,218637.500,0.000
155722.300,182933.000,412028.900,194499.500,237487.800,210220.700,203261.700,218583.800,0.000
155712.600,183067.200,412135.200,194511.700,237623.900,210316.900,203286.700,218615.700,0.000
155630.300,183054.500,412034.100,194463.200,237753.500,210154.400,203326.500,218653.400,0.000
155518.800,183117.800,411851.500,194330.500,238019.800,210013.700,203365.500,218691.600,0.000
155568.000,182992.000,411769.600,194332.900,237843.500,210038.700,203308.600,218631.500,0.000
155721.800,182936.000,411986.800,194497.300,237490.800,210219.400,203263.000,218588.300,0.000
155716.400,183070.500,412091.500,194512.800,237626.700,210322.400,203290.300,218624.300,0.000
155630.500,183049.700,411988.300,194455.900,237749.800,210159.500,203325.000,218657.500,0.000
155520.400,183113.500,411808.400,194324.200,238017.800,210022.800,203368.800,218698.400,0.000
155562.000,182987.000,411714.800,194316.900,237841.300,210040.600,203306.400,218630.300,0.000
155715.500,182933.700,411926.800,194477.100,237489.400,210227.300,203261.200,218586.000,0.000
155717.100,183075.700,412041.100,194498.800,237628.000,210338.700,203297.900,218629.200,0.000
155622.300,183050.800,411934.000,194435.700,237748.600,210164.400,203326.300,218651.400,0.000
155510.000,183108.200,411751.800,194303.300,238010.100,210017.100,203364.300,218686.900,0.000
155579.200,183008.000,411682.200,194320.100,237863.300,210060.200,203326.300,218648.000,0.000
155724.900,182941.000,411881.300,194471.700,237504.500,210234.600,203271.100,218593.100,0.000
155723.600,183075.800,411989.700,194493.700,237632.800,210338.900,203300.800,218629.800,0.000
155624.800,183044.700,411878.000,194427.500,237740.400,210162.800,203324.600,218648.700,0.000
155515.900,183112.300,411708.000,194298.800,238017.800,210022.000,203367.900,218691.000,0.000
155577.800,183010.200,411633.600,194309.800,237869.400,210056.300,203323.300,218644.200,0.000
155730.900,182950.700,411838.000,194468.100,237507.800,210236.000,203273.300,218593.000,0.000
155714.800,183073.400,411933.700,194475.800,237631.200,210328.000,203291.700,218618.800,0.000
155626.500,183047.200,411829.100,194422.000,237750.200,210157.700,203324.700,218649.300,0.000
155516.200,183105.100,411650.300,194289.400,238011.200,210011.300,203364.200,218690.900,0.000
155555.000,182985.500,411555.200,194278.700,237845.200,210027.200,203301.700,218625.200,0.000
155701.500,182918.800,411759.500,194431.700,237481.000,210206.800,203247.800,218571.800,0.000
155717.600,183069.600,411888.700,194467.900,237622.800,210330.600,203294.600,218623.000,0.000
155630.600,183045.800,411783.000,194409.600,237737.900,210162.000,203322.800,218646.000,0.000
155516.700,183101.900,411597.100,194275.700,237998.900,210010.600,203357.300,218678.700,0.000
155556.700,182982.000,411498.900,194267.600,237838.000,210025.600,203295.000,218611.900,0.000
155711.700,182923.400,411710.600,194427.500,237479.000,210211.700,203247.500,218563.800,0.000
155723.200,183075.400,411838.600,194458.300,237622.700,210335.200,203291.900,218616.400,0.000
155640.500,183060.900,411743.600,194410.200,237752.400,210179.100,203332.900,218654.900,0.000
155519.800,183109.000,411551.100,194267.400,238004.200,210022.600,203361.900,218682.200,0.000
155566.800,182996.000,411460.800,194263.800,237851.900,210047.000,203310.100,218627.300,0.000
155722.700,182936.600,411673.600,194429.000,237496.400,210236.100,203261.800,218577.900,0.000
155737.700,183087.400,411806.200,194466.400,237638.100,210362.100,203304.000,218627.300,0.000
155648.000,183061.300,411701.700,194409.600,237757.100,210189.400,203332.600,218651.800,0.000
155535.300,183123.200,411524.100,194278.100,238023.700,210040.500,203374.800,218690.300,0.000
155576.000,183012.800,411434.800,194273.100,237878.300,210060.200,203322.400,218638.500,0.000
155729.400,182950.200,411647.300,194435.300,237520.000,210246.200,203275.100,218594.300,0.000
155710.800,183071.400,411745.300,194440.100,237637.900,210345.400,203291.500,218617.500,0.000
155624.600,183043.500,411639.500,194386.500,237755.400,210177.000,203322.600,218645.800,0.000
155510.800,183096.700,411455.600,194252.200,238011.500,210018.200,203357.000,218678.500,0.000
155569.400,183004.100,411379.200,194260.900,237883.000,210052.000,203319.300,218637.500,0.000
155729.100,182942.900,411592.900,194426.600,237526.000,210243.100,203274.900,218593.300,0.000
155725.400,183072.800,411705.400,194445.600,237645.600,210349.200,203299.500,218623.400,0.000
155625.800,183036.400,411592.100,194380.300,237748.300,210170.800,203318.000,218636.000,0.000
155516.600,183099.600,411416.200,194252.500,238011.800,210023.800,203359.000,218675.000,0.000
155572.800,183007.100,411336.000,194259.600,237881.300,210057.900,203320.500,218633.700,0.000
155732.800,182950.900,411550.900,194425.400,237520.700,210248.700,203274.000,218586.500,0.000
155724.900,183079.000,411659.400,194436.600,237634.200,210351.600,203289.900,218611.600,0.000
155632.200,183050.000,411553.800,194376.900,237746.500,210179.500,203315.900,218636.100,0.000
155516.400,183105.900,411371.800,194243.900,238006.700,210026.700,203354.000,218674.600,0.000
155557.800,182998.800,411276.200,194234.700,237870.000,210044.400,203303.300,218623.900,0.000
155717.400,182934.800,411488.800,194400.400,237505.700,210230.100,203258.100,218580.200,0.000
155721.900,183074.000,411610.400,194425.400,237629.200,210344.500,203287.000,218616.900,0.000
155630.800,183051.300,411505.000,194370.100,237743.500,210176.700,203315.000,218641.000,0.000
155527.800,183119.900,411336.000,194250.800,238017.900,210037.300,203368.200,218689.100,0.000
155574.700,183022.100,411246.300,194246.000,237890.000,210064.900,203328.400,218646.200,0.000
155721.600,182947.200,411446.100,194399.800,237512.200,210242.500,203271.800,218586.800,0.000
155726.000,183088.600,411574.800,194429.200,237639.100,210359.500,203304.200,218624.800,0.000
155643.800,183073.000,411483.400,194380.200,237767.900,210200.400,203341.300,218658.100,0.000
155518.000,183113.100,411289.400,194235.700,238013.400,210032.300,203367.500,218683.400,0.000
155564.800,183017.100,411201.600,194231.600,237890.900,210054.600,203326.800,218641.000,0.000
155730.500,182953.400,411417.100,194402.600,237529.000,210246.400,203282.800,218596.100,0.000
155737.000,183089.800,411543.000,194430.700,237649.200,210362.800,203311.300,218631.100,0.000
155639.100,183055.300,411432.900,194370.100,237755.900,210187.400,203332.900,218649.600,0.000
155527.000,183111.200,411256.300,194240.300,238018.600,210031.200,203372.700,218691.200,0.000
155566.500,183005.300,411156.700,194225.500,237887.300,210042.800,203323.200,218639.000,0.000
155727.100,182938.700,411365.700,194390.400,237521.100,210228.300,203272.200,218588.700,0.000
155729.900,183079.900,411491.800,194416.000,237638.400,210346.800,203300.800,218624.600,0.000
155643.000,183057.800,411394.000,194364.300,237757.800,210187.000,203332.800,218654.800,0.000
155521.500,183105.100,411204.000,194224.200,238008.500,210023.300,203361.500,218680.800,0.000
155562.900,183005.500,411102.500,194209.600,237886.600,210038.100,203313.800,218627.600,0.000
155725.900,182938.100,411309.400,194375.500,237513.800,210225.700,203265.900,218578.300,0.000
155729.500,183072.700,411434.300,194401.800,237625.700,210341.800,203290.300,218609.500,0.000
155632.500,183041.600,411328.800,194341.300,237733.500,210171.800,203311.300,218628.800,0.000
155520.600,183100.500,411156.700,194215.600,237998.000,210017.300,203353.400,218671.700,0.000
155571.800,183016.100,411074.100,194219.400,237895.100,210047.200,203324.500,218641.000,0.000
155725.300,182937.500,411273.300,194377.600,237516.300,210225.400,203268.000,218587.900,0.000
155736.000,183078.100,411402.100,194410.800,237636.300,210348.700,203301.700,218629.600,0.000
155645.400,183052.300,411303.800,194356.300,237753.400,210184.100,203331.000,218657.600,0.000
155529.800,183108.700,411125.800,194223.500,238013.100,210027.500,203372.500,218696.000,0.000
155550.600,182996.100,411009.500,194192.000,237881.400,210025.800,203314.700,218633.900,0.000
155711.100,182922.200,411213.400,194354.400,237502.900,210209.000,203264.600,218582.600,0.000
155721.800,183063.900,411347.800,194389.100,237622.300,210332.100,203294.200,218620.600,0.000
155631.500,183041.600,411251.200,194336.200,237740.800,210168.100,203320.900,218644.900,0.000
155525.300,183103.500,411082.500,194211.300,238004.800,210018.400,203365.900,218685.600,0.000
155565.300,183007.700,410985.300,194195.500,237893.000,210034.100,203320.000,218634.800,0.000
155724.400,182933.700,411188.600,194358.500,237515.300,210218.400,203267.600,218579.900,0.000
155736.400,183078.200,411324.600,194393.600,237633.400,210349.200,203305.600,218624.500,0.000
155639.200,183052.200,411221.000,194331.500,237749.800,210186.300,203332.000,218645.600,0.000
155520.000,183104.100,411039.000,194195.500,238004.800,210026.800,203370.100,218680.300,0.000
155551.300,183002.600,410931.800,194173.700,237884.100,210034.800,203323.000,218629.400,0.000
155711.300,182928.100,411137.900,194336.300,237508.800,210216.900,203269.700,218577.700,0.000
155716.900,183061.100,411262.300,194360.900,237618.100,210336.300,203290.800,218608.200,0.000
155626.400,183035.500,411160.900,194305.400,237729.000,210172.700,203312.300,218627.800,0.000
155525.300,183105.800,410999.400,194192.300,237997.100,210028.200,203363.900,218677.800,0.000
155562.100,183013.600,410902.100,194183.700,237898.200,210040.500,203322.400,218637.700,0.000
155732.800,182941.800,411111.800,194360.600,237526.200,210228.800,203277.000,218597.600,0.000
155739.800,183076.600,411242.100,194389.500,237629.700,210347.900,203298.900,218629.900,0.000
155639.100,183041.600,411136.300,194327.100,237735.400,210177.400,203317.600,218646.700,0.000
155520.700,183097.400,410961.100,194193.700,237994.600,210019.400,203359.500,218685.800,0.000
155550.900,182998.700,410850.100,194169.700,237887.000,210024.800,203312.300,218635.500,0.000
155710.600,182915.200,411048.500,194330.400,237500.200,210202.600,203255.100,218576.400,0.000
155722.400,183053.100,411185.300,194364.900,237607.800,210329.600,203284.300,218612.000,0.000
155630.100,183030.400,411088.000,194308.900,237722.800,210166.900,203308.900,218635.500,0.000
155519.300,183093.400,410920.900,194186.100,237989.200,210015.900,203355.200,218680.200,0.000
155554.600,183002.900,410816.500,194169.000,237893.100,210029.200,203319.000,218638.400,0.000
155712.900,182917.700,411009.100,194326.600,237504.500,210206.600,203263.200,218580.800,0.000
155730.500,183063.400,411149.600,194360.700,237615.800,210339.100,203295.700,218619.500,0.000
155638.200,183038.800,411049.400,194301.600,237726.500,210175.200,203318.000,218639.300,0.000
155519.700,183091.500,410870.400,194167.300,237979.400,210013.200,203353.600,218672.700,0.000
155556.700,183006.100,410768.500,194150.500,237887.800,210029.400,203318.100,218635.200,0.000
155724.400,182928.700,410973.100,194320.600,237510.600,210216.600,203267.800,218582.500,0.000
155734.500,183060.000,411105.000,194352.500,237606.800,210337.800,203289.700,218610.600,0.000
155627.700,183021.400,410992.900,194280.800,237708.700,210159.900,203298.500,218617.900,0.000
155526.700,183089.000,410832.100,194168.600,237982.300,210015.000,203352.500,218671.100,0.000
155561.800,183006.700,410732.500,194153.300,237898.600,210029.400,203319.900,218635.300,0.000
155712.900,182914.300,410920.200,194306.800,237503.000,210202.100,203257.200,218572.700,0.000
155728.000,183052.100,411058.800,194342.400,237604.100,210331.600,203285.300,218608.800,0.000
155641.400,183031.700,410966.600,194288.900,237719.300,210171.500,203312.000,218632.300,0.000
155527.700,183086.800,410793.600,194158.900,237974.400,210008.900,203350.600,218668.700,0.000
155572.300,183013.900,410701.300,194150.100,237902.200,210031.100,203323.500,218640.700,0.000
155721.800,182918.500,410885.200,194301.400,237501.100,210202.300,203256.800,218573.300,0.000
155735.100,183061.400,411023.800,194338.500,237601.700,210338.700,203285.900,218607.900,0.000
155642.500,183041.400,410926.200,194284.400,237719.300,210182.800,203313.100,218630.700,0.000
155525.300,183094.100,410751.500,194155.700,237975.100,210020.800,203354.300,218670.500,0.000
155559.300,183014.100,410650.900,194138.800,237901.800,210035.000,203324.500,218638.500,0.000
155738.800,182944.000,410864.600,194318.600,237530.800,210233.300,203288.000,218598.900,0.000
155730.300,183057.100,410978.100,194329.300,237602.500,210339.200,203287.700,218605.100,0.000
155636.600,183028.700,410879.700,194272.400,237713.000,210177.800,203309.100,218625.200,0.000
155519.400,183082.200,410707.200,194147.600,237971.300,210016.400,203351.800,218667.000,0.000
155542.500,182994.900,410594.100,194124.700,237889.500,210020.000,203315.600,218629.400,0.000
155704.000,182910.000,410791.000,194288.600,237503.900,210202.400,203263.200,218578.800,0.000
155714.800,183041.700,410928.900,194321.000,237596.600,210326.400,203283.000,218602.200,0.000
155637.300,183032.900,410846.400,194278.200,237723.700,210182.700,203319.500,218635.700,0.000
155526.200,183090.500,410674.400,194153.800,237977.000,210024.300,203363.600,218679.000,0.000
155549.000,183008.800,410563.500,194129.000,237898.800,210027.900,203326.000,218638.600,0.000
155704.300,182916.000,410752.900,194285.100,237505.500,210202.300,203263.600,218576.500,0.000
155730.900,183065.500,410904.600,194333.000,237612.700,210344.200,203298.200,218618.700,0.000
155640.700,183040.600,410812.800,194278.400,237728.500,210185.600,203321.700,218642.100,0.000
155526.400,183097.500,410644.400,194152.100,237986.700,210025.100,203366.400,218686.800,0.000
155546.700,183008.800,410524.600,194118.000,237904.600,210020.000,203322.000,218643.300,0.000
155707.800,182915.400,410717.400,194276.500,237508.100,210193.600,203259.300,218581.400,0.000
155729.400,183055.300,410866.900,194320.800,237609.000,210329.100,203289.400,218618.100,0.000
155648.500,183041.600,410783.300,194279.000,237731.900,210181.700,203325.700,218652.600,0.000
155540.800,183104.000,410619.700,194164.600,237994.700,210029.800,203377.700,218704.000,0.000
155550.800,183008.000,410488.600,194121.600,237910.500,210019.600,203327.200,218651.500,0.000
155716.900,182920.900,410682.900,194283.600,237517.900,210201.000,203272.200,218593.200,0.000
155735.300,183059.500,410826.600,194319.000,237610.000,210339.600,203297.200,218625.300,0.000
155656.800,183048.200,410743.900,194273.400,237739.100,210199.100,203333.700,218659.200,0.000
155531.000,183093.800,410563.300,194135.700,237982.300,210025.300,203364.400,218687.900,0.000
155553.900,183017.300,410449.900,194105.100,237918.500,210027.300,203331.400,218650.500,0.000
155718.900,182928.100,410644.100,194268.000,237526.900,210206.200,203276.500,218593.300,0.000
155734.000,183059.500,410785.000,194307.800,237609.900,210336.100,203299.800,218624.800,0.000
155643.200,183038.700,410689.900,194254.600,237726.800,210180.400,203322.300,218644.900,0.000
155528.700,183094.100,410517.800,194131.400,237982.400,210017.000,203366.700,218688.800,0.000
155552.100,183014.800,410398.400,194101.500,237915.800,210014.400,203329.500,218653.500,0.000
155710.500,182914.100,410583.400,194256.600,237517.100,210186.900,203263.600,218589.300,0.000
155720.900,183039.900,410721.200,194287.100,237590.900,210311.100,203275.200,218607.200,0.000
155651.200,183039.300,410650.700,194253.700,237729.000,210180.100,203317.200,218648.900,0.000
155535.600,183091.700,410478.000,194126.300,237979.900,210016.500,203358.200,218686.300,0.000
155556.400,183015.600,410360.500,194090.600,237919.500,210017.000,203323.300,218646.300,0.000
155712.300,182916.900,410544.300,194243.200,237518.700,210187.800,203257.500,218577.500,0.000
155726.100,183048.800,410686.100,194277.600,237595.100,210319.100,203274.000,218601.300,0.000
155645.400,183037.700,410606.200,194231.600,237719.900,210176.900,203307.500,218631.500,0.000
155536.200,183093.500,410438.700,194114.500,237975.800,210019.100,203357.300,218678.700,0.000
155558.400,183019.500,410322.800,194084.200,237921.700,210018.600,203326.100,218647.400,0.000
155713.800,182914.000,410502.300,194240.300,237513.100,210186.800,203260.900,218583.500,0.000
155733.800,183050.700,410653.600,194285.000,237597.100,210325.500,203288.300,218617.800,0.000
155656.000,183045.500,410573.400,194242.200,237726.600,210189.300,203326.300,218652.900,0.000
155537.400,183096.400,410397.500,194112.300,237975.100,210022.000,203364.600,218688.300,0.000
155547.100,183016.000,410272.800,194070.700,237922.500,210015.900,203330.500,218649.800,0.000
155705.100,182916.500,410457.900,194228.200,237522.300,210191.300,203271.400,218588.400,0.000
155736.600,183062.000,410620.300,194280.400,237611.700,210337.000,203301.400,218627.400,0.000
155654.400,183047.300,410535.800,194230.500,237733.400,210189.100,203326.000,218650.900,0.000
155534.800,183094.600,410359.800,194096.900,237977.600,210014.600,203359.800,218679.100,0.000
155552.000,183020.200,410239.900,194064.600,237928.400,210011.700,203328.800,218644.700,0.000
155722.200,182928.700,410433.800,194232.500,237538.000,210196.000,203276.300,218590.300,0.000
155741.500,183063.900,410581.900,194276.200,237617.500,210334.800,203298.400,218620.500,0.000
155645.400,183039.400,410486.000,194218.000,237727.200,210178.700,203317.300,218637.600,0.000
155533.600,183097.300,410320.200,194097.200,237980.900,210016.000,203365.000,218682.600,0.000
155550.300,183025.500,410197.400,194060.900,237933.800,210010.800,203330.600,218649.500,0.000
155713.600,182924.300,410383.300,194221.700,237530.500,210184.200,203266.300,218589.500,0.000
155739.400,183055.200,410536.900,194269.800,237603.800,210321.300,203289.500,218624.600,0.000
155677.300,183061.100,410476.400,194243.100,237741.600,210194.400,203337.700,218669.300,0.000
155554.400,183104.000,410299.900,194111.300,237978.300,210019.100,203368.300,218698.000,0.000
155559.300,183019.800,410164.800,194059.500,237920.900,209999.800,203322.000,218648.700,0.000
155721.300,182915.700,410345.300,194217.400,237515.300,210169.300,203254.600,218580.000,0.000
155743.100,183050.300,410497.200,194260.600,237588.400,210310.500,203276.300,218607.100,0.000
155667.500,183048.200,410424.400,194220.000,237720.900,210181.200,203314.800,218641.600,0.000
155552.000,183102.800,410257.200,194094.900,237974.000,210016.600,203356.200,218680.500,0.000
155560.800,183026.700,410128.000,194050.000,237927.600,210004.100,203322.300,218642.700,0.000
155735.700,182935.300,410321.400,194221.600,237534.900,210188.100,203271.000,218590.700,0.000
155758.000,183067.800,410473.800,194267.900,237602.900,210326.600,203291.500,218619.200,0.000
155667.000,183052.400,410390.500,194218.700,237723.900,210183.100,203316.900,218644.800,0.000
155550.100,183099.200,410221.100,194095.900,237975.600,210015.900,203360.500,218688.400,0.000
155555.700,183024.600,410089.800,194050.100,237935.300,210005.700,203327.400,218650.000,0.000
155710.400,182919.200,410266.300,194203.500,237528.300,210176.900,203260.400,218579.900,0.000
155733.000,183053.500,410422.300,194249.600,237601.500,210322.600,203283.800,218609.100,0.000
155656.500,183047.000,410346.600,194208.000,237730.100,210188.300,203319.500,218641.600,0.000
155547.500,183102.400,410184.100,194088.600,237983.100,210021.900,203367.400,218686.100,0.000
155571.300,183041.900,410069.600,194055.600,237953.800,210018.200,203343.800,218659.200,0.000
155732.200,182931.900,410247.000,194208.800,237542.300,210181.700,203272.900,218584.500,0.000
155764.000,183072.100,410408.800,194258.500,237615.700,210329.300,203295.000,218614.500,0.000
155688.900,183067.900,410339.000,194219.900,237749.700,210199.300,203333.600,218650.500,0.000
155568.100,183111.000,410166.700,194092.800,237989.900,210029.000,203372.200,218690.300,0.000
155556.900,183020.900,410016.300,194029.600,237935.000,209997.500,203323.200,218638.900,0.000
155715.400,182909.400,410190.400,194186.900,237526.700,210166.600,203257.800,218571.500,0.000
155752.400,183052.100,410358.800,194249.800,237602.700,210323.900,203293.200,218613.000,0.000
155672.600,183045.100,410284.000,194207.500,237730.600,210191.600,203327.500,218645.800,0.000
155547.000,183089.700,410106.000,194074.300,237969.000,210016.400,203362.100,218678.600,0.000
155550.200,183023.300,409973.600,194023.900,237938.000,210002.900,203327.500,218641.600,0.000
155722.500,182932.000,410164.700,194193.300,237544.800,210191.300,203278.700,218589.800,0.000
155750.600,183066.600,410324.700,194242.200,237607.500,210336.400,203297.700,218618.300,0.000
155675.800,183061.300,410249.800,194201.000,237738.300,210201.200,203331.400,218648.500,0.000
155557.500,183106.000,410076.000,194074.500,237977.700,210028.400,203369.500,218683.300,0.000
155572.400,183049.300,409955.500,194038.200,237957.000,210024.300,203348.200,218659.200,0.000
155723.000,182929.300,410123.000,194186.400,237537.700,210183.700,203273.100,218583.400,0.000
155743.000,183059.500,410280.400,194231.900,237599.200,210326.400,203286.400,218606.800,0.000
155668.100,183057.800,410213.700,194196.300,237731.600,210198.900,203324.900,218643.700,0.000
155561.500,183117.300,410057.300,194081.800,237987.400,210041.400,203379.300,218695.700,0.000
155556.600,183043.300,409917.900,194023.900,237956.300,210021.200,203342.200,218657.300,0.000
155712.200,182926.100,410086.200,194176.900,237540.300,210184.900,203272.200,218587.200,0.000
155744.500,183061.400,410250.100,194232.100,237600.000,210332.300,203295.400,218621.000,0.000
155663.600,183054.400,410175.200,194190.900,237727.400,210201.500,203327.700,218651.000,0.000
155545.300,183100.100,410005.000,194068.900,237965.400,210027.500,203367.500,218688.900,0.000
155555.200,183045.400,409877.400,194021.700,237950.300,210016.900,203341.800,218661.800,0.000
155716.200,182928.800,410051.100,194172.600,237537.600,210184.100,203271.700,218590.900,0.000
155747.500,183058.800,410213.200,194221.400,237594.300,210330.500,203288.000,218615.600,0.000
155670.300,183052.500,410142.100,194174.900,237722.000,210198.600,203317.800,218639.000,0.000
155563.100,183106.700,409981.300,194058.900,237970.900,210035.700,203367.700,218686.600,0.000
155564.400,183040.000,409842.000,194006.300,237951.000,210017.900,203338.700,218656.500,0.000
155730.300,182930.300,410016.700,194167.300,237540.400,210190.500,203276.100,218592.100,0.000
155761.100,183066.500,410182.300,194221.700,237601.800,210341.400,203298.400,218623.200,0.000
155677.700,183057.800,410107.200,194176.600,237727.900,210212.300,203329.400,218652.500,0.000
155554.900,183094.700,409934.400,194049.900,237957.000,210031.600,203361.900,218686.300,0.000
155555.600,183028.600,409798.800,193995.500,237933.900,210007.300,203327.700,218650.600,0.000
155717.800,182914.800,409971.300,194152.200,237524.400,210176.700,203261.400,218582.000,0.000
155749.600,183048.200,410141.000,194211.100,237580.200,210329.800,203284.800,218612.000,0.000
155670.000,183047.800,410071.600,194171.700,237712.900,210208.300,203322.800,218645.800,0.000
155551.300,183095.500,409905.100,194050.600,237956.300,210036.400,203367.500,218686.900,0.000
155556.600,183043.200,409775.700,194005.900,237952.000,210023.000,203349.300,218666.400,0.000
155721.800,182935.500,409955.800,194167.100,237545.500,210194.600,203286.900,218604.800,0.000
155750.500,183063.100,410119.700,194219.100,237597.200,210339.000,203300.400,218628.500,0.000
155675.600,183061.600,410051.400,194181.300,237729.000,210212.700,203335.300,218658.700,0.000
155560.200,183107.400,409884.300,194060.400,237967.700,210038.500,203377.500,218698.300,0.000
155557.500,183045.100,409744.400,194004.100,237956.300,210012.200,203347.600,218667.400,0.000
155707.600,182916.200,409902.900,194146.600,237528.700,210166.100,203268.000,218585.900,0.000
155736.300,183039.300,410066.300,194197.600,237580.500,210311.900,203282.700,218610.300,0.000
155672.000,183047.000,410008.300,194167.600,237718.500,210196.000,203324.300,218650.200,0.000
155563.800,183101.100,409850.100,194053.400,237958.600,210030.000,203370.800,218694.400,0.000
155562.900,183045.000,409709.400,193998.000,237953.200,210009.900,203343.600,218663.800,0.000
155721.400,182930.300,409876.300,194149.000,237545.000,210177.800,203273.900,218592.300,0.000
155752.600,183058.400,410044.200,194202.800,237592.400,210330.100,203291.600,218617.700,0.000
155672.000,183054.800,409975.500,194159.200,237714.400,210205.300,203321.800,218648.000,0.000
155559.100,183105.000,409815.200,194045.000,237953.800,210036.400,203367.200,218691.400,0.000
155555.100,183045.100,409675.600,193990.400,237953.500,210011.100,203341.300,218663.800,0.000
155707.700,182918.600,409834.300,194136.400,237532.100,210167.700,203264.600,218589.100,0.000
155734.100,183041.700,409997.700,194187.000,237577.100,210318.700,203279.600,218612.300,0.000
155664.200,183047.600,409940.000,194153.300,237714.600,210203.700,203320.500,218652.500,0.000
155540.900,183086.100,409766.400,194025.900,237943.500,210023.600,203355.100,218683.600,0.000
155535.400,183030.400,409618.900,193965.400,237941.400,210002.000,203330.200,218655.100,0.000
155699.600,182923.100,409789.700,194122.000,237536.700,210177.400,203269.400,218589.400,0.000
155744.200,183060.900,409972.700,194190.200,237589.600,210341.500,203298.400,218623.200,0.000
155666.600,183058.400,409905.500,194147.100,237718.100,210215.800,203327.400,218650.300,0.000
155559.000,183110.100,409747.800,194035.000,237960.900,210047.400,203377.600,218696.200,0.000
155549.900,183046.700,409604.300,193972.700,237960.600,210013.800,203346.000,218663.600,0.000
155711.000,182928.100,409774.600,194129.300,237552.100,210179.000,203277.300,218595.600,0.000
155756.300,183064.600,409956.700,194198.800,237606.100,210344.100,203305.000,218631.300,0.000
155688.300,183068.200,409896.200,194162.800,237744.000,210225.000,203340.600,218668.700,0.000
155559.800,183094.900,409712.200,194024.900,237957.200,210028.200,203362.300,218688.200,0.000
155561.800,183047.000,409573.900,193970.800,237968.000,210007.000,203342.900,218666.600,0.000
155728.600,182934.900,409742.000,194126.200,237557.500,210174.300,203276.500,218600.100,0.000
155768.100,183065.600,409918.800,194189.100,237599.900,210328.400,203295.000,218628.200,0.000
155691.400,183065.300,409854.600,194147.700,237727.800,210207.100,203326.200,218657.200,0.000
155566.100,183098.200,409679.300,194020.500,237948.400,210022.000,203358.300,218684.800,0.000
155557.300,183042.700,409536.100,193962.000,237957.800,209998.200,203337.900,218657.700,0.000
155718.300,182923.400,409704.200,194118.100,237549.200,210166.800,203275.500,218590.800,0.000
155762.800,183060.200,409884.600,194186.400,237597.600,210336.600,203305.800,218627.300,0.000
155679.400,183053.500,409813.600,194140.300,237722.400,210215.300,203334.200,218653.500,0.000
155567.100,183101.600,409653.700,194026.800,237960.600,210047.400,203380.600,218698.700,0.000
155548.400,183043.300,409497.700,193955.400,237963.000,210013.200,203344.500,218662.000,0.000
155705.600,182919.800,409656.600,194106.400,237546.100,210173.600,203272.000,218588.700,0.000
155748.700,183050.600,409838.300,194169.400,237584.500,210333.100,203292.800,218617.300,0.000
155670.200,183049.600,409772.400,194124.300,237711.800,210208.900,203319.600,218641.900,0.000
155575.000,183112.300,409628.500,194028.600,237966.300,210057.100,203382.900,218703.000,0.000
155558.200,183054.700,409480.900,193959.400,237975.500,210025.600,203356.400,218675.700,0.000
155706.600,182919.800,409634.100,194101.000,237551.600,210176.700,203277.400,218595.900,0.000
155747.700,183045.200,409813.300,194168.500,237592.000,210336.400,203300.800,218626.400,0.000
155671.900,183047.400,409747.400,194129.000,237725.400,210218.600,203334.200,218657.200,0.000
155546.100,183080.200,409572.000,193999.400,237941.800,210032.000,203363.300,218683.300,0.000
155539.300,183034.900,409429.800,193938.000,237961.300,210003.000,203340.100,218662.000,0.000
155703.900,182917.700,409598.100,194093.300,237554.100,210169.500,203272.800,218594.700,0.000
155748.600,183050.200,409780.200,194157.500,237586.500,210330.900,203292.300,218623.700,0.000
155694.100,183079.000,409741.700,194135.500,237741.600,210239.300,203346.000,218675.200,0.000
155581.600,183122.900,409580.200,194018.600,237972.200,210066.800,203389.000,218713.300,0.000
155564.600,183066.700,409426.000,193948.400,237982.400,210027.500,203358.700,218679.700,0.000
155727.700,182949.300,409591.300,194106.500,237577.600,210197.500,203293.700,218613.900,0.000
155779.600,183086.500,409782.000,194185.100,237621.300,210370.400,203322.300,218651.800,0.000
155689.100,183073.800,409703.300,194130.600,237740.100,210243.200,203339.100,218667.000,0.000
155548.200,183091.300,409514.000,193990.400,237949.100,210046.600,203360.300,218683.100,0.000
155539.600,183048.200,409374.000,193931.100,237977.100,210022.000,203346.000,218663.200,0.000
155702.300,182925.600,409539.500,194086.200,237568.800,210187.800,203280.500,218597.900,0.000
155757.900,183065.500,409732.900,194165.300,237617.200,210363.400,203311.800,218639.300,0.000
155674.900,183062.000,409664.400,194115.500,237746.000,210244.000,203336.300,218661.600,0.000
155558.800,183100.800,409498.200,193995.400,237973.000,210067.000,203378.200,218700.700,0.000
155543.900,183052.400,409349.800,193926.800,237995.800,210031.400,203353.100,218675.500,0.000
155714.500,182939.100,409518.000,194083.700,237595.300,210202.600,203288.700,218609.500,0.000
155740.600,183050.300,409683.700,194131.900,237609.200,210347.800,203287.100,218614.700,0.000
155666.300,183052.600,409624.100,194092.200,237742.900,210233.800,203317.100,218644.500,0.000
155566.300,183105.600,409475.800,193990.500,237982.000,210070.600,203373.900,218696.600,0.000
155552.100,183061.600,409329.500,193923.400,238010.800,210038.400,203354.700,218676.000,0.000
155713.100,182938.800,409488.300,194075.400,237602.000,210203.800,203285.900,218606.200,0.000
155761.900,183066.500,409672.800,194143.700,237628.200,210366.400,203302.200,218630.400,0.000
155681.100,183064.300,409606.600,194095.900,237754.100,210246.600,203325.300,218654.200,0.000
155566.300,183105.800,409446.300,193982.000,237982.600,210070.600,203368.800,218694.900,0.000
155555.300,183063.800,409299.500,193920.300,238013.400,210038.700,203351.400,218674.400,0.000
155715.800,182941.300,409458.200,194071.000,237597.900,210199.500,203281.900,218602.000,0.000
155755.300,183062.400,409636.600,194133.700,237615.200,210357.800,203294.000,218622.100,0.000
155682.000,183071.000,409582.400,194099.800,237754.900,210253.700,203331.500,218657.400,0.000
155567.900,183111.200,409423.300,193986.700,237983.300,210075.900,203377.500,218698.800,0.000
155554.200,183071.600,409276.800,193920.400,238017.800,210043.000,203362.000,218677.800,0.000
155730.200,182960.100,409447.400,194083.300,237617.300,210214.200,203301.000,218614.500,0.000
155776.000,183083.900,409633.200,194147.700,237638.000,210371.700,203314.700,218636.500,0.000
155700.700,183089.400,409573.300,194106.400,237768.300,210258.300,203345.000,218663.500,0.000
155579.200,183119.200,409403.800,193986.400,237981.200,210066.300,203376.800,218697.600,0.000
155563.000,183076.600,409253.700,193919.900,238016.100,210029.400,203361.000,218681.000,0.000
155714.700,182940.500,409400.800,194060.500,237596.400,210183.700,203283.300,218600.000,0.000
155763.200,183064.500,409588.800,194130.300,237618.200,210347.600,203302.000,218623.500,0.000
155681.000,183067.600,409522.300,194083.400,237747.400,210231.700,203329.200,218650.500,0.000
155569.700,183110.500,409362.600,193974.500,237970.900,210058.800,203378.000,218695.700,0.000
155557.400,183075.500,409218.200,193909.100,238017.300,210029.300,203367.600,218683.100,0.000
155723.600,182954.500,409376.300,194065.900,237612.600,210194.200,203300.500,218615.900,0.000
155767.000,183077.300,409555.900,194132.200,237626.200,210354.300,203309.800,218634.500,0.000
155696.500,183091.300,409503.000,194093.700,237765.900,210251.700,203345.500,218667.700,0.000
155578.300,183123.500,409335.400,193975.300,237980.900,210068.200,203385.300,218703.600,0.000
155552.800,183080.100,409174.500,193897.200,238015.300,210024.400,203362.800,218673.300,0.000
155714.200,182957.300,409330.500,194046.000,237604.400,210188.400,203293.200,218600.900,0.000
155753.800,183071.000,409512.600,194109.900,237612.700,210344.100,203300.400,218617.600,0.000
155682.400,183081.600,409458.400,194077.300,237751.800,210240.000,203335.300,218653.200,0.000
155565.700,183115.300,409293.000,193966.800,237968.900,210060.100,203379.400,218694.700,0.000
155537.400,183068.600,409129.800,193887.400,237999.700,210015.300,203356.800,218670.800,0.000
155711.600,182956.900,409297.600,194051.000,237605.000,210188.100,203297.300,218612.900,0.000
155779.400,183096.700,409502.800,194140.500,237636.300,210368.100,203327.200,218652.700,0.000
155688.800,183087.400,409427.700,194084.900,237753.800,210246.100,203341.000,218667.000,0.000
155565.100,183112.300,409255.700,193962.300,237961.300,210056.400,203376.100,218697.600,0.000
155527.400,183058.400,409083.600,193874.100,237988.000,210001.500,203345.000,218661.800,0.000
155686.700,182936.000,409238.200,194021.500,237581.900,210168.100,203278.800,218589.000,0.000
155753.100,183077.300,409443.800,194106.900,237614.800,210354.100,203308.900,218625.600,0.000
155681.300,183087.300,409388.900,194067.400,237748.500,210250.200,203338.200,218656.300,0.000
155563.500,183114.500,409222.900,193952.700,237963.200,210062.500,203376.800,218694.000,0.000
155539.200,183068.600,409062.200,193878.100,238004.600,210016.000,203356.800,218671.300,0.000
155708.500,182948.400,409222.700,194034.300,237602.400,210186.300,203293.500,218606.000,0.000
155759.600,183071.800,409416.300,194108.600,237616.000,210354.200,203309.300,218630.300,0.000
155679.300,183076.100,409357.600,194065.700,237741.300,210240.600,203336.900,218659.500,0.000
155561.400,183107.600,409191.400,193948.400,237952.600,210052.700,203373.100,218692.100,0.000
155547.900,183077.200,409042.200,193883.200,238012.000,210021.200,203367.500,218684.300,0.000
155708.600,182950.100,409194.400,194030.400,237603.300,210180.900,203293.800,218610.300,0.000
155751.100,183061.200,409377.400,194096.600,237601.300,210339.000,203296.100,218621.800,0.000
155691.400,183078.200,409332.300,194069.900,237745.000,210245.300,203335.900,218662.000,0.000
155571.400,183101.400,409158.400,193945.300,237950.700,210053.500,203369.100,218689.400,0.000
155563.100,183078.900,409015.000,193881.500,238012.300,210023.500,203365.300,218680.000,0.000
155723.400,182951.500,409166.800,194029.000,237600.000,210183.300,203294.000,218606.300,0.000
155762.500,183064.600,409346.800,194093.200,237598.500,210344.000,203299.900,218622.000,0.000
155697.400,183082.800,409301.200,194065.200,237743.300,210250.300,203341.300,218662.100,0.000
155585.900,183117.500,409142.500,193957.700,237961.100,210068.500,203385.000,218702.800,0.000
155552.000,183074.800,408976.500,193874.000,238007.400,210015.100,203360.100,218677.800,0.000
155705.500,182942.700,409118.600,194015.400,237590.900,210167.700,203282.800,218600.200,0.000
155759.400,183068.000,409314.500,194091.200,237595.700,210337.500,203298.600,218623.000,0.000
155693.900,183087.400,409271.200,194060.000,237738.000,210243.300,203338.200,218664.400,0.000
155573.300,183113.000,409104.100,193940.400,237950.300,210056.200,203374.300,218698.000,0.000
155545.100,183075.900,408944.800,193860.200,238002.800,210011.500,203355.700,218677.600,0.000
155708.800,182952.500,409099.700,194010.600,237598.900,210181.200,203291.500,218608.900,0.000
155756.200,183065.200,409289.600,194079.400,237598.100,210346.700,203302.500,218624.800,0.000
155689.800,183082.000,409241.900,194048.500,237740.500,210253.200,203341.500,218662.100,0.000
155570.200,183107.000,409072.400,193932.200,237944.900,210063.300,203374.300,218692.900,0.000
155543.400,183071.800,408911.200,193853.900,237999.000,210014.400,203357.400,218673.800,0.000
155699.700,182937.300,409055.200,193998.200,237584.800,210165.700,203281.500,218596.100,0.000
155750.900,183051.500,409248.000,194072.100,237584.100,210329.000,203289.000,218614.300,0.000
155686.000,183066.300,409201.200,194040.100,237725.900,210231.300,203323.400,218650.200,0.000
155583.000,183107.600,409052.100,193940.100,237941.400,210055.600,203374.200,218698.300,0.000
155549.900,183067.800,408885.300,193854.400,237993.800,210002.800,203353.400,218675.400,0.000
155719.200,182950.300,409041.600,194007.600,237598.000,210173.400,203291.900,218613.800,0.000
155759.700,183055.000,409226.300,194071.400,237584.200,210330.800,203290.900,218621.000,0.000
155674.200,183056.000,409165.100,194020.100,237704.000,210219.900,203308.300,218639.200,0.000
155569.300,183099.500,409015.600,193916.200,237926.400,210049.400,203360.000,218687.300,0.000
155542.100,183072.100,408855.100,193831.900,237992.300,210009.000,203347.300,218671.800,0.000
155700.100,182944.700,408995.200,193971.500,237582.600,210171.500,203274.700,218595.700,0.000
155759.100,183067.700,409196.800,194053.800,237588.000,210349.900,203294.900,218619.100,0.000
155684.200,183079.400,409144.800,194017.400,237725.000,210251.800,203325.400,218650.200,0.000
155567.800,183105.300,408980.000,193906.800,237936.200,210066.000,203367.200,218688.900,0.000
155538.600,183071.500,408819.300,193826.700,238000.000,210015.000,203352.400,218673.700,0.000
155700.900,182939.300,408966.700,193973.200,237593.300,210171.000,203281.100,218600.500,0.000
155766.700,183061.400,409169.100,194057.600,237593.300,210346.100,203297.500,218625.800,0.000
155696.500,183079.800,409125.800,194021.900,237735.200,210251.600,203333.300,218659.300,0.000
155570.000,183097.700,408957.600,193902.500,237931.800,210054.800,203363.300,218688.000,0.000
155538.500,183067.000,408794.200,193821.600,237997.400,210005.300,203348.200,218671.700,0.000
155701.900,182944.000,408942.500,193968.800,237599.600,210171.900,203283.400,218603.900,0.000
155749.900,183051.400,409130.500,194037.100,237585.100,210337.600,203287.200,218614.100,0.000
155687.100,183074.400,409091.200,194009.400,237732.000,210254.200,203329.000,218653.500,0.000
155578.100,183105.400,408937.500,193904.400,237942.500,210071.300,203373.500,218695.900,0.000
155547.400,183074.500,408774.000,193823.600,238011.100,210021.100,203360.500,218681.500,0.000
155709.500,182948.500,408919.400,193972.300,237605.800,210182.500,203291.600,218609.500,0.000
155767.300,183068.100,409118.700,194052.400,237601.800,210355.200,203303.200,218629.200,0.000
155681.300,183069.800,409055.600,193999.700,237732.100,210246.500,203322.100,218650.500,0.000
155565.400,183097.400,408892.700,193889.800,237937.800,210060.200,203361.600,218688.700,0.000
155533.200,183067.800,408728.600,193807.600,238007.000,210008.300,203349.300,218672.800,0.000
155687.800,182927.800,408865.700,193949.900,237592.400,210158.600,203275.100,218594.500,0.000
155741.300,183032.400,409059.200,194026.700,237571.200,210322.600,203279.600,218607.900,0.000
155674.200,183049.600,409013.500,193991.600,237712.900,210230.800,203312.800,218644.200,0.000
155567.700,183084.700,408858.400,193884.900,237923.400,210050.400,203360.500,218686.000,0.000
155544.300,183064.000,408699.500,193806.600,238001.500,210003.900,203353.300,218675.700,0.000
155699.800,182935.100,408835.900,193947.300,237595.500,210162.800,203280.600,218599.300,0.000
155761.500,183058.000,409041.000,194030.300,237586.800,210343.800,203295.000,218619.300,0.000
155688.700,183075.900,408995.600,193993.800,237724.700,210249.400,203326.800,218652.600,0.000
155562.000,183094.200,408827.200,193872.500,237922.500,210055.900,203359.800,218677.400,0.000
155537.300,183075.700,408673.200,193795.400,238007.400,210013.100,203356.700,218671.500,0.000
155700.600,182944.900,408815.900,193943.700,237603.700,210172.400,203286.800,218599.800,0.000
155757.400,183055.200,409013.600,194024.900,237590.400,210342.800,203293.600,218614.800,0.000
155689.900,183071.800,408969.500,193994.500,237730.300,210247.500,203329.200,218649.900,0.000
155565.700,183088.900,408799.200,193875.500,237922.600,210050.300,203360.500,218679.800,0.000
155536.800,183066.500,408637.800,193795.600,238005.000,210002.900,203356.300,218673.200,0.000
155687.800,182925.900,408765.900,193931.000,237589.000,210147.800,203273.100,218591.500,0.000
155749.400,183038.400,408968.800,194014.400,237574.600,210320.700,203283.100,218610.000,0.000
155682.300,183050.900,408923.600,193981.800,237708.400,210227.800,203317.300,218644.200,0.000
155577.600,183082.100,408777.000,193884.700,237920.300,210047.800,203365.200,218688.900,0.000
155536.800,183052.500,408608.100,193791.800,237995.400,209986.600,203344.000,218666.800,0.000
155701.000,182926.100,408751.400,193938.600,237594.500,210149.200,203275.900,218597.400,0.000
155775.800,183055.300,408970.600,194037.700,237592.600,210344.000,203302.500,218629.500,0.000
155705.900,183070.900,408928.200,194004.100,237732.200,210256.100,203338.000,218662.800,0.000
155590.300,183093.400,408769.100,193896.600,237933.000,210070.000,203380.400,218702.200,0.000
155537.700,183054.300,408584.600,193796.300,238001.500,210001.600,203357.000,218679.000,0.000
155685.100,182914.600,408710.500,193924.300,237588.900,210145.700,203272.700,218596.400,0.000
155760.900,183047.800,408926.900,194020.800,237586.800,210341.800,203299.800,218629.000,0.000
155679.300,183056.600,408866.700,193972.100,237715.300,210240.800,203322.700,218652.700,0.000
155562.300,183077.400,408704.200,193857.000,237916.100,210051.700,203358.900,218688.000,0.000
155536.800,183063.600,408548.900,193777.800,238011.100,210004.800,203359.200,218683.500,0.000
155704.600,182941.800,408694.400,193925.300,237616.100,210166.600,203292.600,218612.000,0.000
155770.000,183055.500,408903.200,194014.300,237594.300,210345.800,203300.200,218623.900,0.000
155703.500,183073.400,408863.500,193984.200,237729.900,210256.300,203331.700,218654.700,0.000
155590.000,183096.800,408708.800,193878.200,237929.400,210070.300,203373.400,218692.300,0.000
155542.300,183066.000,408534.800,193783.700,238008.200,210003.300,203354.900,218672.300,0.000
155702.200,182932.000,408671.100,193926.900,237606.300,210156.700,203283.100,218598.000,0.000
155769.100,183050.800,408881.700,194016.500,237591.400,210343.200,203300.800,218621.200,0.000
155694.000,183068.500,408832.800,193977.200,237728.200,210252.000,203331.400,218652.700,0.000
155580.100,183090.600,408672.500,193869.500,237925.300,210066.400,203374.600,218692.900,0.000
155540.100,183066.100,408499.400,193775.200,238012.800,210009.500,203365.200,218682.600,0.000
155705.000,182933.800,408637.000,193917.900,237615.800,210166.400,203294.800,218613.300,0.000
155772.200,183039.400,408844.400,194001.300,237583.000,210342.100,203298.900,218626.300,0.000
155714.100,183068.300,408815.500,193977.700,237732.500,210260.000,203339.000,218664.700,0.000
155599.300,183090.700,408660.400,193872.400,237928.200,210071.500,203378.000,218703.500,0.000
155555.600,183070.300,408492.700,193779.900,238021.200,210012.900,203367.900,218689.900,0.000
155714.900,182940.700,408626.800,193921.600,237621.800,210169.400,203298.600,218615.400,0.000
155779.100,183055.100,408832.500,194010.600,237592.700,210352.500,203308.300,218630.800,0.000
155702.800,183071.700,408785.300,193973.500,237728.900,210264.300,203337.800,218660.700,0.000
155577.700,183084.700,408622.400,193859.000,237922.500,210069.000,203371.200,218692.300,0.000
155537.100,183068.900,408454.500,193771.000,238018.300,210013.300,203367.000,218686.200,0.000
155690.300,182932.400,408575.700,193906.000,237610.500,210165.600,203291.200,218605.800,0.000
155768.000,183051.900,408792.200,194001.900,237588.400,210358.100,203310.400,218630.700,0.000
155712.400,183079.000,408760.800,193971.800,237735.000,210277.900,203347.100,218668.500,0.000
155601.900,183095.900,408604.600,193860.100,237927.500,210083.900,203382.300,218699.600,0.000
155556.700,183068.700,408430.200,193762.200,238015.200,210013.000,203366.500,218683.100,0.000
155725.000,182950.700,408576.100,193917.800,237631.800,210181.400,203309.200,218624.100,0.000
155779.300,183052.600,408778.700,194002.600,237592.900,210355.800,203311.300,218634.100,0.000
155700.300,183068.300,408728.300,193963.300,237724.900,210265.900,203336.600,218660.200,0.000
155596.300,183101.300,408582.400,193868.600,237930.700,210089.800,203388.900,218706.400,0.000
155550.800,183083.100,408411.700,193773.700,238030.200,210026.200,203382.100,218699.100,0.000
155691.200,182930.800,408522.500,193894.800,237614.200,210161.500,203293.100,218608.300,0.000
155755.700,183037.000,408727.900,193981.400,237574.200,210339.300,203295.400,218617.900,0.000
155700.000,183072.800,408701.000,193960.000,237726.900,210268.600,203339.300,218659.400,0.000
155574.900,183076.400,408528.600,193840.100,237903.600,210062.700,203361.200,218679.200,0.000
155535.300,183059.300,408359.700,193748.200,238003.500,209998.600,203354.800,218675.500,0.000
155699.400,182930.700,408493.000,193891.400,237614.800,210156.400,203289.500,218608.800,0.000
155767.900,183037.300,408705.600,193983.600,237573.300,210338.300,203297.500,218622.700,0.000
155709.200,183070.000,408682.400,193958.300,237724.600,210262.300,203335.900,218662.500,0.000
155605.200,183091.200,408531.700,193854.300,237918.000,210074.800,203377.700,218699.000,0.000
155561.400,183076.400,408358.600,193756.200,238022.600,210010.100,203370.100,218689.600,0.000
155698.300,182925.500,408467.400,193873.900,237609.100,210145.900,203279.400,218597.000,0.000
155777.900,183043.900,408690.800,193980.000,237577.900,210342.200,203296.900,218620.100,0.000
155721.100,183082.200,408669.800,193964.200,237733.900,210275.700,203346.300,218668.100,0.000
155594.900,183089.500,408504.900,193849.200,237912.300,210075.700,203378.500,218694.200,0.000
155558.700,183084.800,408342.200,193763.500,238024.500,210020.200,203383.500,218697.800,0.000
155709.500,182941.300,408458.100,193892.000,237615.500,210163.900,203301.600,218613.000,0.000
155790.600,183057.900,408680.900,193992.300,237583.700,210359.300,203315.900,218631.100,0.000
155714.600,183077.300,408636.700,193949.900,237716.500,210267.400,203340.200,218656.400,0.000
155583.600,183077.000,408465.900,193829.800,237890.800,210057.600,203364.600,218680.000,0.000
155534.500,183064.700,408291.100,193735.500,238004.000,209995.500,203363.300,218674.800,0.000
155696.500,182936.300,408418.200,193881.600,237620.200,210159.200,203300.400,218611.600,0.000
155766.700,183040.600,408630.400,193977.400,237574.800,210347.200,203309.600,218628.300,0.000
155690.300,183060.400,408590.800,193938.900,237713.900,210263.100,203336.500,218657.600,0.000
155575.200,183071.300,408433.300,193828.000,237898.700,210068.300,203371.500,218689.500,0.000
155538.100,183064.000,408266.800,193731.600,238014.300,210005.900,203369.900,218685.800,0.000
155701.700,182933.800,408393.700,193869.300,237620.900,210159.300,203300.100,218613.600,0.000
155776.400,183043.500,408612.400,193965.100,237576.600,210348.000,203306.800,218626.700,0.000
155709.300,183076.900,408580.700,193934.200,237723.200,210275.000,203340.900,218660.200,0.000
155598.600,183095.300,408429.100,193834.900,237910.100,210086.100,203382.000,218698.800,0.000
155541.000,183074.700,408248.900,193725.800,238017.000,210007.900,203368.100,218681.700,0.000
155689.800,182929.200,408358.300,193851.200,237618.400,210147.700,203286.200,218598.400,0.000
155767.800,183036.800,408576.300,193956.700,237572.600,210337.700,203296.100,218616.500,0.000
155689.000,183052.900,408533.000,193921.800,237704.900,210253.600,203318.500,218643.500,0.000
155563.100,183055.600,408366.000,193814.800,237879.300,210050.700,203350.200,218673.700,0.000
155514.600,183046.600,408192.300,193719.300,237996.100,209985.800,203350.300,218672.000,0.000
155671.200,182914.600,408313.700,193854.500,237605.200,210137.900,203281.400,218600.300,0.000
155759.200,183032.500,408546.200,193961.900,237561.900,210337.400,203301.700,218625.600,0.000
155701.600,183069.700,408524.500,193934.400,237713.800,210270.600,203340.900,218665.700,0.000
155582.800,183077.300,408364.500,193821.500,237893.700,210073.000,203370.700,218692.300,0.000
155536.000,183075.000,408197.300,193722.500,238018.700,210011.700,203374.200,218692.700,0.000
155693.000,182942.700,408320.000,193857.200,237632.200,210166.000,203307.800,218622.400,0.000
155767.000,183043.900,408534.400,193950.800,237575.100,210350.800,203308.900,218628.300,0.000
155696.200,183067.400,408494.300,193912.900,237711.300,210271.100,203330.600,218650.800,0.000
155581.700,183079.000,408334.100,193811.900,237888.400,210079.500,203365.400,218679.900,0.000
155530.100,183074.100,408161.400,193715.700,238014.200,210013.700,203365.400,218675.700,0.000
155683.100,182938.300,408281.300,193848.700,237628.700,210161.300,203293.200,218600.000,0.000
155762.800,183041.300,408505.700,193950.900,237574.600,210351.700,203300.000,218614.500,0.000
155694.700,183065.100,408471.900,193913.500,237713.800,210275.300,203329.800,218645.000,0.000
155594.300,183087.300,408327.800,193816.100,237902.000,210091.800,203376.600,218687.200,0.000
155535.900,183077.300,408145.700,193704.300,238018.100,210016.800,203368.800,218678.800,0.000
155690.700,182939.600,408264.600,193835.600,237631.600,210160.800,203300.400,218610.100,0.000
155775.900,183051.700,408494.200,193938.000,237581.400,210353.600,203310.100,218626.600,0.000
155710.700,183080.700,408461.300,193905.800,237722.500,210277.800,203339.600,218656.500,0.000
155598.200,183092.300,408304.200,193803.800,237902.000,210086.500,203375.800,218690.900,0.000
155531.800,183073.000,408114.600,193692.700,238012.400,210004.000,203363.200,218677.400,0.000
155694.100,182942.600,408237.600,193834.500,237630.600,210156.300,203298.000,218610.600,0.000
155777.500,183042.700,408461.900,193939.500,237572.000,210345.000,203302.200,218620.500,0.000
155710.700,183069.100,408430.200,193909.700,237709.000,210270.600,203328.500,218648.700,0.000
155605.700,183090.500,408282.700,193821.000,237896.600,210088.300,203375.500,218691.600,0.000
155544.300,183088.100,408102.100,193717.100,238026.100,210018.900,203374.200,218688.000,0.000
155679.700,182935.500,408197.500,193830.600,237623.300,210151.400,203288.100,218602.200,0.000
155753.000,183028.300,408416.600,193928.700,237558.200,210339.400,203292.500,218613.400,0.000
155692.500,183064.700,408394.300,193905.800,237709.400,210278.300,203331.100,218652.200,0.000
155581.200,183079.600,408240.400,193804.600,237894.200,210087.000,203368.700,218689.100,0.000
155526.200,183075.600,408061.900,193701.700,238028.800,210014.300,203369.300,218689.100,0.000
155679.400,182935.500,408171.700,193831.000,237641.300,210159.700,203297.300,218611.700,0.000
155769.600,183046.000,408402.700,193939.500,237586.500,210358.300,203308.300,218629.400,0.000
155714.500,183091.100,408386.300,193917.400,237746.400,210303.500,203349.400,218673.200,0.000
155607.400,183109.200,408239.700,193818.300,237930.400,210116.300,203392.800,218710.600,0.000
155548.200,183108.300,408059.400,193709.500,238061.000,210042.100,203392.600,218705.800,0.000
155699.000,182971.900,408165.800,193833.200,237676.800,210189.000,203320.700,218629.400,0.000
155777.300,183062.700,408384.500,193931.500,237603.900,210374.500,203319.600,218637.200,0.000
155722.400,183107.100,408369.800,193908.300,237758.000,210317.000,203357.500,218677.700,0.000
155604.600,183107.800,408211.200,193802.200,237933.100,210113.700,203386.700,218703.200,0.000
155554.000,183108.500,408033.600,193704.200,238075.900,210042.500,203391.500,218708.800,0.000
155688.400,182952.300,408121.300,193813.400,237673.900,210168.000,203302.500,218618.000,0.000
155767.000,183044.800,408342.600,193916.300,237605.800,210358.500,203304.100,218628.300,0.000
155692.300,183070.400,408310.400,193876.900,237745.100,210284.900,203326.900,218654.900,0.000
155583.600,183086.400,408163.100,193781.700,237924.100,210094.600,203369.800,218692.000,0.000
155530.000,183087.600,407984.300,193679.200,238059.100,210021.100,203373.000,218694.300,0.000
155677.100,182946.400,408090.000,193803.800,237673.500,210163.500,203300.700,218619.100,0.000
155752.800,183036.800,408308.600,193905.100,237594.700,210349.500,203300.100,218624.400,0.000
155685.800,183075.000,408283.500,193873.000,237742.000,210288.700,203328.500,218654.800,0.000
155572.900,183081.600,408129.100,193772.100,237913.100,210091.800,203364.000,218686.700,0.000
155513.400,183079.000,407946.700,193663.700,238049.500,210012.400,203365.300,218687.000,0.000
155674.700,182950.300,408061.400,193798.900,237675.200,210164.600,203302.800,218622.300,0.000
155761.100,183043.500,408287.200,193905.500,237601.200,210353.900,203306.400,218631.500,0.000
155703.600,183085.700,408266.500,193878.400,237751.300,210295.800,203337.900,218664.600,0.000
155591.800,183089.000,408114.300,193778.500,237921.200,210096.800,203372.200,218693.900,0.000
155536.200,183091.700,407936.200,193673.800,238061.700,210019.800,203375.800,218696.300,0.000
155684.700,182950.100,408037.400,193796.400,237678.800,210161.000,203303.900,218618.200,0.000
155766.100,183042.100,408261.900,193901.700,237603.900,210353.300,203305.700,218625.700,0.000
155712.900,183089.400,408248.400,193884.500,237759.500,210304.100,203349.800,218671.500,0.000
155614.900,183108.800,408107.100,193799.300,237941.000,210121.400,203400.000,218717.200,0.000
155545.400,183100.000,407914.300,193681.500,238073.100,210034.100,203392.000,218706.600,0.000
155677.300,182944.500,407997.500,193786.400,237671.100,210155.900,203301.300,218613.000,0.000
155776.800,183053.500,408239.500,193906.800,237601.100,210358.800,203315.200,218633.000,0.000
155704.400,183083.100,408208.100,193866.000,237739.300,210287.500,203335.800,218654.400,0.000
155604.900,183098.900,408065.600,193778.000,237920.900,210102.200,203383.400,218698.500,0.000
155556.400,183110.500,407894.300,193683.000,238071.800,210032.300,203393.800,218707.700,0.000
155684.900,182947.300,407976.000,193787.800,237670.000,210150.600,203297.500,218610.200,0.000
155764.900,183032.700,408196.600,193890.400,237581.700,210334.700,203293.900,218614.000,0.000
155715.300,183086.400,408188.700,193874.800,237740.900,210288.900,203339.300,218662.200,0.000
155606.400,183093.300,408039.000,193781.200,237916.700,210098.500,203382.900,218700.800,0.000
155534.100,183081.700,407844.700,193662.500,238050.700,210005.900,203378.400,218694.700,0.000
155692.300,182952.300,407955.300,193792.500,237682.200,210153.700,203316.000,218628.100,0.000
155771.500,183033.900,408176.800,193896.200,237584.500,210336.200,203309.800,218627.300,0.000
155712.400,183081.300,408166.100,193871.700,237735.400,210285.300,203344.400,218660.500,0.000
155601.600,183087.400,408015.900,193773.900,237905.500,210088.200,203381.100,218691.900,0.000
155548.800,183099.600,407842.400,193671.900,238063.200,210015.500,203395.000,218702.600,0.000
155709.800,182967.300,407947.600,193802.500,237689.200,210160.000,203325.600,218631.900,0.000
155801.000,183055.200,408175.000,193908.100,237597.100,210347.600,203322.400,218630.700,0.000
155736.500,183095.800,408156.200,193874.500,237742.400,210294.800,203349.400,218659.400,0.000
155617.600,183096.000,408000.500,193770.300,237906.100,210092.800,203379.500,218687.300,0.000
155554.800,183103.100,407817.300,193659.500,238056.500,210011.000,203385.800,218694.000,0.000
155700.400,182959.600,407910.100,193777.200,237674.200,210148.800,203313.800,218619.500,0.000
155779.000,183041.800,408131.300,193880.800,237574.500,210334.900,203309.600,218622.300,0.000
155723.700,183097.700,408123.700,193859.900,237735.800,210295.600,203346.900,218664.400,0.000
155613.300,183102.800,407975.100,193764.500,237908.800,210101.300,203383.600,218699.000,0.000
155547.500,183106.200,407791.600,193653.900,238062.900,210016.400,203389.600,218705.300,0.000
155703.400,182972.500,407892.100,193782.700,237693.600,210160.900,203326.100,218638.700,0.000
155777.900,183039.300,408105.900,193881.600,237582.800,210333.900,203309.000,218626.500,0.000
155712.600,183079.000,408087.700,193849.900,237730.900,210283.100,203334.000,218652.400,0.000
155602.800,183082.300,407936.200,193753.500,237899.400,210086.500,203369.600,218684.300,0.000
155545.400,183094.000,407754.800,193645.200,238051.900,210005.000,203379.700,218691.100,0.000
155691.800,182951.300,407843.600,193762.300,237667.700,210138.900,203303.400,218613.500,0.000
155778.800,183033.400,408070.300,193868.600,237566.300,210328.500,203300.800,218616.300,0.000
155725.700,183088.200,408065.500,193845.200,237729.600,210288.000,203334.800,218656.600,0.000
155610.600,183087.500,407908.800,193741.700,237893.900,210084.000,203365.300,218683.700,0.000
155554.600,183102.900,407733.600,193641.100,238055.800,210008.200,203380.300,218699.400,0.000
155707.300,182965.300,407833.300,193768.700,237684.600,210150.600,203314.000,218631.700,0.000
155782.500,183034.200,408049.300,193868.500,237570.500,210328.400,203301.300,218623.700,0.000
155709.800,183075.000,408026.300,193827.500,237717.300,210272.700,203322.100,218648.300,0.000
155602.500,183079.800,407877.900,193737.600,237888.400,210082.600,203367.800,218689.300,0.000
155539.800,183093.100,407699.200,193628.700,238048.900,210002.500,203380.100,218698.900,0.000
155688.000,182957.600,407795.500,193747.300,237682.300,210145.100,203312.000,218628.200,0.000
155784.100,183047.300,408029.800,193866.900,237583.200,210341.900,203317.100,218638.300,0.000
155721.800,183095.200,408017.100,193838.900,237733.200,210296.300,203347.300,218668.800,0.000
155610.700,183096.400,407867.200,193741.300,237902.400,210099.400,203384.200,218700.300,0.000
155550.400,183110.400,407685.400,193634.300,238068.500,210022.900,203397.000,218709.500,0.000
155680.000,182956.000,407758.300,193735.800,237680.100,210145.800,203309.600,218617.500,0.000
155761.000,183023.200,407977.100,193839.800,237565.600,210326.200,203300.200,218612.000,0.000
155702.100,183077.700,407971.000,193815.200,237724.300,210288.200,203337.200,218652.200,0.000
155604.500,183090.700,407834.800,193733.100,237901.100,210104.900,203386.800,218700.800,0.000
155530.400,183089.800,407643.200,193612.200,238050.900,210008.000,203381.600,218698.300,0.000
155674.200,182946.200,407729.000,193727.600,237675.000,210137.500,203305.000,218620.300,0.000
155767.800,183025.400,407959.900,193841.800,237565.600,210325.900,203301.600,218624.500,0.000
155707.200,183073.800,407950.300,193812.800,237716.900,210279.700,203328.800,218656.600,0.000
155607.800,183082.500,407808.800,193727.700,237888.400,210087.000,203372.100,218694.700,0.000
155560.000,183113.000,407640.900,193631.900,238068.500,210018.900,203398.800,218720.900,0.000
155694.000,182963.600,407715.200,193735.200,237688.300,210145.600,203317.200,218634.000,0.000
155768.500,183028.100,407932.600,193830.800,237563.300,210322.600,203299.200,218618.000,0.000
155711.100,183084.400,407929.400,193806.400,237723.900,210287.900,203334.500,218655.400,0.000
155597.700,183084.400,407778.800,193711.800,237890.800,210095.200,203374.800,218690.100,0.000
155530.300,183099.600,407595.700,193600.800,238058.800,210014.800,203388.900,218702.800,0.000
155677.300,182961.500,407685.700,193718.200,237691.100,210152.900,203324.400,218633.000,0.000
155764.500,183030.300,407913.200,193829.600,237572.900,210337.000,203315.800,218629.900,0.000
155709.300,183083.600,407908.700,193808.200,237732.100,210298.100,203348.900,218667.200,0.000
155597.600,183076.400,407753.200,193710.600,237886.000,210091.300,203378.000,218693.000,0.000
155519.800,183080.700,407552.400,193583.200,238038.800,209991.400,203374.200,218688.200,0.000
155668.200,182942.200,407640.200,193701.200,237671.800,210126.100,203303.500,218615.000,0.000
155771.500,183027.900,407882.400,193825.200,237563.500,210322.700,203304.000,218621.300,0.000
155715.100,183083.400,407880.100,193800.500,237719.000,210285.100,203335.400,218656.800,0.000
155607.800,183084.100,407735.700,193711.000,237878.800,210088.300,203373.000,218689.900,0.000
155524.100,183082.800,407538.400,193584.100,238034.100,209985.000,203365.400,218680.800,0.000
155670.800,182945.500,407626.200,193701.800,237675.600,210121.400,203297.000,218609.300,0.000
155776.600,183037.000,407871.600,193831.800,237571.900,210331.800,203310.600,218626.400,0.000
155723.700,183101.200,407872.200,193813.100,237736.700,210308.100,203354.800,218672.300,0.000
155604.500,183091.100,407713.600,193711.500,237892.700,210106.000,203387.700,218700.200,0.000
155535.400,183105.000,407526.300,193595.700,238064.200,210018.400,203398.700,218705.000,0.000
155686.800,182970.500,407614.600,193715.100,237706.200,210153.800,203330.300,218633.200,0.000
155769.500,183028.300,407835.800,193819.000,237574.600,210331.800,203312.800,218621.900,0.000
155709.700,183078.300,407830.400,193789.300,237726.100,210296.000,203341.800,218656.700,0.000
155601.300,183076.100,407684.800,193696.200,237884.400,210097.700,203375.400,218687.100,0.000
155525.300,183087.100,407495.500,193576.300,238049.100,209999.700,203379.500,218691.100,0.000
155669.900,182949.400,407581.600,193696.700,237689.700,210133.900,203316.500,218625.700,0.000
155761.500,183019.800,407812.800,193816.800,237562.800,210323.300,203308.000,218626.100,0.000
155699.400,183074.800,407806.800,193788.800,237714.000,210288.200,203334.300,218657.200,0.000
155591.700,183075.900,407663.900,193700.800,237877.200,210092.700,203373.300,218693.900,0.000
155525.200,183093.200,407478.100,193589.000,238053.700,210003.500,203386.400,218707.700,0.000
155662.900,182944.500,407547.100,193690.300,237681.600,210129.100,203309.000,218626.400,0.000
155755.400,183008.300,407777.000,193798.500,237551.300,210317.300,203299.800,218619.700,0.000
155710.800,183074.500,407783.500,193779.400,237715.100,210298.100,203340.400,218658.600,0.000
155598.500,183067.300,407633.300,193683.500,237868.300,210096.500,203372.100,218684.700,0.000
155522.000,183079.800,407444.000,193564.200,238042.200,210001.900,203381.100,218689.700,0.000
155666.900,182944.100,407526.200,193681.100,237685.700,210134.800,203312.000,218616.500,0.000
155758.600,183011.000,407753.000,193794.800,237551.900,210321.700,203298.900,218609.700,0.000
155704.300,183074.900,407755.600,193773.400,237713.500,210294.700,203333.500,218648.300,0.000
155599.300,183075.600,407617.000,193686.500,237879.700,210104.700,203375.900,218683.700,0.000
155527.600,183091.900,407433.500,193568.700,238057.000,210014.600,203387.300,218693.500,0.000
155664.500,182947.500,407503.700,193671.300,237688.300,210140.000,203310.100,218614.600,0.000
155770.300,183025.400,407744.800,193797.100,237563.400,210336.900,203308.300,218619.200,0.000
155725.600,183092.900,407755.500,193783.500,237731.700,210313.800,203347.300,218662.000,0.000
155616.700,183089.900,407607.200,193691.100,237892.200,210113.400,203381.500,218695.900,0.000
155533.200,183102.300,407409.400,193562.800,238063.300,210016.000,203386.000,218700.300,0.000
155667.600,182950.300,407477.800,193665.900,237698.800,210137.300,203312.300,218622.600,0.000
155758.600,183008.300,407702.700,193780.000,237559.200,210321.700,203299.800,218616.800,0.000
155712.800,183080.600,407714.100,193767.500,237727.900,210304.300,203346.000,218663.900,0.000
155604.100,183072.300,407569.300,193678.900,237882.100,210103.200,203381.600,218694.200,0.000
155521.700,183079.800,407373.900,193554.000,238052.600,209998.200,203384.500,218696.900,0.000
155665.000,182942.400,407452.000,193666.800,237699.500,210128.700,203316.800,218626.100,0.000
155766.500,183010.700,407685.600,193785.300,237561.100,210321.700,203309.100,218623.100,0.000
155717.700,183077.000,407691.900,193761.700,237720.000,210298.500,203340.600,218659.300,0.000
155605.700,183066.500,407544.900,193666.500,237871.900,210096.200,203370.800,218687.300,0.000
155525.100,183080.700,407351.200,193543.600,238048.100,209998.300,203377.000,218693.400,0.000
155677.100,182954.200,407436.900,193667.100,237710.200,210140.200,203322.100,218635.300,0.000
155762.300,183005.500,407655.600,193772.700,237557.800,210315.900,203299.400,218616.000,0.000
155709.000,183065.600,407656.900,193748.600,237713.300,210289.300,203330.100,218651.500,0.000
155601.300,183064.300,407512.800,193661.700,237871.300,210095.000,203368.100,218684.900,0.000
155524.000,183083.100,407324.600,193540.900,238050.500,209996.100,203376.700,218689.400,0.000
155673.600,182950.700,407407.800,193656.400,237702.300,210130.000,203312.600,218619.600,0.000
155788.900,183030.800,407658.400,193789.500,237575.000,210339.800,203314.900,218627.300,0.000
155741.600,183103.800,407671.200,193769.800,237738.200,210325.700,203350.000,218664.500,0.000
155621.900,183087.200,407517.000,193667.800,237874.900,210116.500,203371.200,218681.100,0.000
155549.300,183110.800,407332.500,193552.300,238059.400,210020.600,203384.400,218695.600,0.000
155683.900,182963.400,407394.900,193656.000,237701.300,210140.700,203309.500,218620.500,0.000
155794.200,183035.500,407640.200,193789.300,237570.400,210344.300,203315.000,218632.700,0.000
155738.400,183096.800,407645.300,193766.900,237731.400,210321.800,203350.400,218670.300,0.000
155613.600,183071.400,407483.900,193663.300,237873.800,210105.900,203374.900,218692.800,0.000
155532.600,183087.400,407286.000,193534.500,238056.500,210006.700,203387.100,218701.800,0.000
155666.800,182939.800,407342.000,193631.300,237698.400,210128.000,203312.900,218623.800,0.000
155782.200,183012.800,407589.500,193766.800,237561.300,210330.200,203314.700,218629.300,0.000
155731.100,183077.600,407600.900,193745.200,237723.400,210307.500,203344.900,218661.500,0.000
155612.900,183056.000,407446.500,193644.700,237863.100,210096.000,203365.300,218677.100,0.000
155547.300,183088.400,407272.800,193535.100,238059.600,210008.500,203390.200,218700.500,0.000
155704.100,182969.100,407358.600,193660.800,237724.600,210151.900,203337.800,218644.500,0.000
155790.400,183018.200,407579.600,193772.700,237562.900,210332.100,203312.600,218625.200,0.000
155725.100,183073.600,407577.700,193743.900,237711.800,210303.400,203336.300,218654.700,0.000
155609.500,183059.500,407430.200,193655.600,237861.300,210101.000,203370.100,218682.700,0.000
155527.100,183082.200,407238.000,193535.700,238051.500,210003.900,203387.600,218697.000,0.000
155666.000,182948.600,407303.300,193642.500,237710.300,210136.000,203324.000,218630.000,0.000
155754.700,182996.500,407527.800,193754.000,237546.600,210320.100,203304.200,218616.400,0.000
155709.600,183071.500,407546.900,193742.100,237715.700,210311.200,203347.400,218665.900,0.000
155590.900,183048.500,407391.900,193641.100,237855.900,210100.200,203371.300,218687.800,0.000
155520.100,183079.500,407212.800,193524.500,238053.100,210008.200,203392.900,218709.100,0.000
155656.000,182939.400,407275.400,193623.900,237704.000,210128.200,203321.800,218629.200,0.000
155762.800,182997.500,407513.500,193747.900,237556.000,210318.800,203306.800,218617.600,0.000
155722.400,183071.100,407535.100,193738.000,237725.200,210308.600,203345.800,218661.100,0.000
155620.300,183066.400,407400.600,193657.600,237876.900,210111.900,203382.900,218694.800,0.000
155534.600,183084.400,407204.800,193530.400,238059.800,210003.400,203389.300,218701.600,0.000
155686.400,182964.500,407283.100,193648.500,237731.300,210143.800,203336.300,218645.300,0.000
155784.900,183017.500,407516.700,193769.600,237571.500,210333.000,203320.100,218635.400,0.000
155720.200,183072.700,407516.000,193736.700,237718.100,210307.400,203340.200,218660.000,0.000
155617.900,183069.800,407380.500,193654.000,237875.900,210118.000,203386.000,218698.100,0.000
155540.300,183098.300,407191.900,193533.100,238071.900,210020.800,203404.500,218713.900,0.000
155665.700,182950.600,407240.200,193621.400,237715.600,210136.200,203326.200,218630.500,0.000
155766.500,183008.000,407478.100,193744.800,237564.000,210332.900,203316.500,218622.700,0.000
155705.700,183067.200,407483.600,193719.800,237716.100,210312.000,203342.900,218651.600,0.000
155608.800,183070.500,407357.300,193651.300,237876.900,210125.900,203391.900,218696.500,0.000
155513.700,183084.000,407152.600,193518.500,238062.000,210012.500,203397.300,218700.800,0.000
155647.800,182947.100,407207.400,193618.200,237715.800,210132.300,203326.500,218626.500,0.000
155753.600,183002.700,407446.300,193743.700,237554.700,210319.600,203311.300,218618.500,0.000
155716.100,183082.600,407475.600,193738.300,237730.100,210319.000,203357.100,218668.400,0.000
155611.600,183068.800,407333.000,193654.500,237872.900,210117.600,203390.400,218698.000,0.000
155534.300,183096.000,407145.900,193534.700,238069.300,210019.000,203408.000,218714.900,0.000
155659.300,182950.700,407195.300,193621.900,237719.700,210131.500,203329.700,218631.700,0.000
155760.200,183002.800,407428.800,193738.000,237550.600,210320.200,203306.000,218612.300,0.000
155717.700,183076.300,407447.100,193723.400,237711.500,210310.400,203343.800,218653.500,0.000
155621.300,183071.600,407315.200,193648.000,237864.100,210117.900,203384.900,218692.000,0.000
155530.700,183088.000,407116.800,193517.200,238053.300,210006.500,203391.500,218699.700,0.000
155665.200,182954.500,407173.500,193617.000,237722.300,210131.500,203327.800,218629.500,0.000
155773.300,183011.900,407414.100,193746.500,237563.700,210332.000,203314.900,218623.100,0.000
155718.700,183074.600,407428.300,193728.300,237719.500,210312.800,203345.100,218657.600,0.000
155621.600,183070.400,407297.900,193655.100,237875.000,210123.900,203390.500,218698.500,0.000
155539.500,183092.400,407105.300,193528.400,238073.200,210018.600,203403.700,218709.200,0.000
155672.000,182951.300,407155.900,193622.700,237738.000,210134.800,203331.900,218637.200,0.000
155773.600,183000.300,407389.800,193745.700,237566.300,210326.000,203309.600,218622.900,0.000
155718.300,183063.800,407402.400,193726.000,237717.200,210303.900,203340.400,218657.000,0.000
155614.900,183056.000,407265.200,193643.300,237864.800,210108.700,203379.800,218692.900,0.000
155521.800,183073.900,407063.300,193505.200,238052.200,209995.300,203385.200,218696.100,0.000
155662.000,182945.300,407124.800,193608.200,237727.100,210121.700,203325.600,218631.600,0.000
155782.600,183014.400,407377.600,193746.200,237575.600,210335.600,203324.700,218630.200,0.000
155741.900,183094.100,407402.200,193735.800,237737.700,210331.500,203365.900,218672.000,0.000
155635.200,183079.600,407261.600,193650.500,237877.400,210126.900,203398.900,218701.800,0.000
155552.300,183111.600,407069.400,193525.500,238080.000,210024.100,203414.800,218717.900,0.000
155665.800,182956.300,407100.300,193603.500,237728.500,210124.700,203325.700,218628.100,0.000
155777.600,183013.000,407345.100,193742.300,237560.000,210329.600,203312.500,218621.800,0.000
155729.200,183085.700,407370.700,193734.300,237722.100,210323.000,203350.500,218663.800,0.000
155627.500,183072.300,407235.900,193653.300,237866.100,210128.000,203388.000,218694.800,0.000
155535.500,183091.300,407037.900,193517.700,238058.700,210013.300,203394.700,218703.200,0.000
155668.500,182955.100,407091.500,193611.600,237732.900,210133.300,203329.800,218636.200,0.000
155783.300,183009.900,407336.800,193744.100,237565.900,210339.100,203316.800,218628.500,0.000
155726.600,183075.500,407347.300,193718.600,237720.000,210323.600,203340.400,218656.800,0.000
155626.100,183065.500,407210.400,193640.500,237865.600,210130.900,203380.900,218690.400,0.000
155530.300,183088.600,407010.400,193506.000,238062.300,210016.300,203392.100,218698.400,0.000
155659.400,182953.300,407056.500,193599.500,237736.700,210134.400,203325.300,218627.400,0.000
155766.500,182996.300,407291.200,193725.800,237556.900,210331.400,203304.200,218612.300,0.000
155707.300,183053.100,407299.900,193699.900,237703.600,210310.300,203323.400,218638.100,0.000
155613.200,183048.400,407172.200,193629.000,237854.800,210120.400,203368.900,218682.200,0.000
155541.500,183093.800,406996.500,193516.900,238075.100,210025.400,203402.400,218715.600,0.000
155666.900,182956.500,407038.800,193603.400,237749.200,210143.300,203335.800,218646.400,0.000
155764.800,182996.300,407269.500,193722.000,237565.400,210337.200,203311.100,218628.100,0.000
155710.000,183063.900,407287.300,193704.200,237720.100,210326.300,203340.600,218662.700,0.000
155597.900,183044.100,407147.200,193619.100,237855.100,210122.800,203371.500,218687.000,0.000
155522.200,183092.000,406969.100,193503.400,238075.300,210028.600,203403.200,218716.500,0.000
155648.900,182956.900,407014.000,193592.000,237753.400,210143.400,203332.100,218640.200,0.000
155758.000,183003.900,407257.900,193723.200,237574.400,210345.900,203315.600,218624.500,0.000
