EEG 1, EEG 2, EEG 3, EEG 4, EEG 5, EEG 6, EEG 7, EEG 8, TRIG
6533.9438104996225,7738.126597298022,18907.397737044546,8811.683942284957,10158.00788028421,8871.281191832077,8592.76930215057,9247.438008838797,0.0
39628.87588034992,46919.31121454754,114325.8608891029,53301.09548528413,61593.69607815519,53788.04676069951,52106.96130445409,56075.06930594451,0.0
108628.15623409873,128555.02332542502,311973.7547977147,145529.70152773417,168745.6478086819,147385.20683572083,142781.94991178985,153648.8285839677,0.0
182012.38869428073,215258.6734029492,519213.21483355376,242400.61359390456,282456.97329762497,246856.16170350584,239080.38907011366,257262.97563798312,0.0
215557.1083275709,254704.00044168587,608770.1464088933,284542.6912070043,333954.8973917982,292254.65714369,282826.52438485844,304316.05033838365,0.0
201849.68191721747,238256.93520300038,562075.1429203168,263126.45900584554,311985.0001452398,273582.6943239354,264422.99192742107,284487.2779800196,0.0
169045.91068478097,199331.82589539603,462969.9168812351,217109.8564274747,260632.73774874184,228949.4298695029,221101.9554002584,237841.93175672385,0.0
146208.057818408,172266.3194230239,395556.5051108293,185729.46701138496,225063.27413067094,197678.63606685548,191110.26936098567,205535.45215559733,0.0
141358.28152311564,166451.89894317242,381400.339829972,179155.6300568135,217423.33788174906,190767.27982234332,184802.73241545333,198720.14491301094,0.0
143831.57404485418,169264.37672447736,388196.6980622749,182399.11771483475,220920.6301366711,193993.22101399576,187967.03062869306,202116.69082107907,0.0
140747.1193762284,165550.97821287074,378531.77565924625,177990.20448742228,215712.27729752773,189933.5737383602,183713.50287661437,197549.7744570277,0.0
130316.81298771684,153239.66856102613,347950.5415758455,163790.2311026003,199346.96640940168,175916.0050382504,169901.86363846814,182697.21865914855,0.0
119763.49464503939,140806.88898794207,317748.27473720914,149719.01573017455,183085.49402771788,161497.08614223308,156121.52060455826,167861.52747898432,0.0
113622.59942380556,133526.8921742655,300650.8811570184,141757.90168883692,173664.55464159197,152910.43937954959,148186.90993266352,159305.19852354375,0.0
109175.23358175265,128196.03099337584,288261.08196878684,136021.68243433564,166612.49321623406,146772.67963756615,142332.48389748725,152996.1653304419,0.0
103090.22400255216,120978.63605572881,270989.83567017,128008.85424785632,156906.35585599375,138689.7956152928,134203.82298830448,144256.37818235482,0.0
96566.36791983376,113340.81550147697,252710.52904285787,119484.45545613042,146745.97186167428,130056.0097104563,125580.25039622626,134985.70704463433,0.0
91593.499585421,107554.97322473518,239254.62693104616,113178.49076865538,139274.56077152106,123289.16507495985,119176.98082025789,128089.85870335989,0.0
86894.91955778723,102009.37928034233,226580.4407070693,107252.92159495928,132197.21711077762,116710.60356141606,113171.0925388443,121613.4509238267,0.0
80842.16881898185,94798.62236646784,209751.63276529644,99420.07128980085,122736.80911861073,108428.75548429745,105231.84740205573,113069.04870767315,0.0
74900.67248973847,87772.05157720878,193202.03051636426,91709.914568547,113331.7069607624,100571.68964286687,97314.64020490932,104566.72338536648,0.0
70845.91250127865,83071.52150095139,182334.08371121017,86610.30330891101,107075.23124394848,95307.64623707488,91956.84494070878,98818.81208535997,0.0
67272.31836172377,78940.9967430311,173030.32213625798,82221.7157595578,101818.57701247728,90442.18487558974,87402.11787154042,93917.70704236065,0.0
62142.421677212464,72874.61866602028,159139.51454229694,75717.05520269801,94085.49596152312,83279.16359288948,80825.73029778746,86830.71924952969,0.0
56561.14967127946,66216.10790593084,143750.00652136028,68540.26261036796,85372.01151002101,75644.45145541981,73501.91573569631,78950.41419759879,0.0
52700.85364419501,61651.77619959978,133285.3424766707,63649.9965709554,79228.88251433664,70613.00437873656,68323.68181588112,73395.56480437433,0.0
49800.841551359306,58312.449083957705,125726.86337821942,60080.11400706259,74791.59589162155,66906.4921753438,64487.41997956138,69283.63259944119,0.0
45633.62165434379,53470.585928028406,114648.78701945693,54852.85257603868,68619.02056020741,61231.538588111966,59148.20188414134,63537.04408651037,0.0
40589.64839283282,47503.76819189893,101024.16195592331,48457.213445767644,61021.442000913674,54195.036759440656,52679.2105863423,56565.155607131084,0.0
36848.9165505403,43027.631227607504,91003.19025097674,43767.720006877484,55184.39797962362,49065.66303589171,47778.86147298155,51292.56120540106,0.0
34350.8318689307,40075.516277814284,84447.27554774901,40691.95976478671,51180.51629610519,45876.88278262121,44401.558560139805,47675.256757437324,0.0
31011.14740867009,36210.626004326405,75535.10619994518,36491.30740635365,46068.570967093554,41569.24119821648,39990.88608608829,42944.7696408776,0.0
26575.870397021426,31051.341473297893,63649.2344002869,30887.345644189147,39478.06494777964,35543.51030448376,34295.24888652247,36814.750328212765,0.0
22960.032208883928,26783.1613637486,54164.58402224432,26417.105307772385,34107.385458924495,30463.88310980526,29703.849579881167,31863.451052791785,0.0
20666.686767977204,24026.98100804688,48287.42437841605,23655.057720393757,30534.162505646203,27300.937590588008,26713.730481860537,28645.194004191017,0.0
17976.826666608747,20846.097006624444,41081.663599981795,20274.004654390876,26235.109038757357,23839.945419282467,23088.52520960521,24759.0224785672,0.0
14191.330752449012,16449.493094218877,30822.176575033784,15439.39547682568,20419.869802609013,18923.28438488583,18086.733542513855,19392.014286026122,0.0
10806.517336592326,12533.371898329076,21957.827908639654,11234.331223240157,15453.25809413422,14330.823585519573,13763.061467805823,14740.134211865276,0.0
8644.12304325928,9982.76025710734,16606.974037271626,8686.45679689671,12336.864292562619,11222.253522603449,11072.561008839384,11835.987904783631,0.0
6413.54574280371,7288.729281846706,10772.688985189274,5948.40805422422,8847.136842898695,8124.14866981416,8150.376280739412,8691.070562163626,0.0
3213.273859378703,3489.189466784651,1979.9326414253567,1832.5185287430788,3729.156508738444,3948.0439730027692,3835.3588940498325,4063.1124027291216,0.0
143.4442232532079,-66.1192349423153,-6252.848103282761,-2058.019118283177,-994.5200858954804,-5.831574216744002,-239.83886914176514,-304.5710685007933,0.0
-1864.1767262956355,-2349.711982676003,-11181.269507197838,-4431.6928240604675,-3825.530827254422,-2728.201494042849,-2756.494685371524,-3008.9414428597374,0.0
-3772.0439349411627,-4595.8058207107015,-15882.018383498902,-6678.713015035892,-6542.1803424621285,-5489.277656687643,-5107.6901319603985,-5545.800269896959,0.0
-6548.283046903937,-7933.457328714555,-23357.846918673167,-10184.662236866854,-10876.392687258804,-9323.439894942687,-8739.774768622012,-9453.82026001343,0.0
-9347.745395645878,-11255.55902875499,-31008.008725935906,-13771.26839673637,-15369.387681369371,-12948.871834759804,-12520.931668368023,-13507.849196319887,0.0
-11153.873654920752,-13313.761740314527,-35627.60037522608,-15976.844233608816,-18128.002423158738,-15186.463684083697,-14930.964844222372,-16085.571078996363,0.0
-12702.90238897629,-15058.1855105611,-39333.49420844587,-17775.061921119355,-20249.634091896398,-17291.682742988443,-16846.30227297375,-18145.496068309505,0.0
-15083.913829576262,-17870.238626435967,-45500.530436812005,-20701.70144023226,-23709.671960892938,-20697.49980966041,-19825.535657992,-21360.322862106477,0.0
-17698.147773818993,-21020.30004296183,-52548.3905584708,-24010.26996717576,-27799.729853366363,-24309.846753792954,-23251.062979534283,-25046.860517976478,0.0
-19389.590653436953,-23035.05165312344,-57032.651516554506,-26124.183160264565,-30577.787115955216,-26434.838730272433,-25580.653229973297,-27538.620183046805,0.0
-20590.664093879353,-24383.862986339325,-60000.026802116605,-27557.21189124896,-32410.246073949293,-27862.943020967523,-27202.21424220786,-29267.89867893981,0.0
-22507.13018586822,-26568.903615613606,-64885.5961700797,-29899.337951553516,-35125.203535649925,-30475.986874836213,-29611.713202828123,-31860.71252901026,0.0
-24908.70350597744,-29405.900899565844,-71180.50888201146,-32881.65271418982,-38635.80600010595,-33910.70866404469,-32628.344448802145,-35117.70363581873,0.0
-26593.892800240865,-31456.92634933402,-75576.72227498425,-34952.56424851179,-41289.54481289991,-36266.205528651655,-34834.99804536784,-37495.422676644885,0.0
-27592.32881050025,-32658.98562084924,-78114.23009178165,-36156.657422223274,-42994.93403662793,-37464.68271905915,-36248.84852424878,-39005.7809622983,0.0
-29054.869064528535,-34326.425873192675,-81909.56036200118,-37973.51074702952,-45241.24741635794,-39255.41590131376,-38209.40967659224,-41103.23657781355,0.0
-31142.051271338114,-36713.094746814364,-87331.3724953349,-40566.12762386119,-48223.71336069952,-42085.62453976772,-40841.49474441037,-43935.4846421839,0.0
-32803.2804260114,-38666.00671318058,-91515.61840315307,-42563.758828727674,-50574.74213046995,-44493.7391574271,-42883.16645827873,-46140.328150782436,0.0
-33724.504332306184,-39810.65136885904,-93773.85938030537,-43629.53685558179,-52033.5818142248,-45810.20564738864,-44083.55039689828,-47432.72984912053,0.0
-34826.401013243,-41141.49828292823,-96708.98038022143,-45005.64636466376,-53907.31838468063,-47165.15901866543,-45634.211011258914,-49089.74644802872,0.0
-36532.20415511568,-43101.04760117998,-101269.68615021966,-47171.17392978759,-56548.79240016853,-49296.74683351804,-47918.50871369751,-51535.41509564883,0.0
-38071.5387231836,-44835.124764092936,-105130.25244468066,-49036.57341824589,-58691.527487022984,-51380.012102279565,-49834.658768291076,-53596.56392538702,0.0
-38973.79000639339,-45883.614260767856,-107160.73599074976,-50034.58040329432,-59865.902632058795,-52752.5756491077,-50881.91062333244,-54730.82498420981,0.0
-39877.77677860746,-47008.01866510579,-109441.26142156884,-51114.701545278695,-61301.03687576145,-54047.382308638866,-52064.041459426466,-56003.80516789192,0.0
-41260.100864470325,-48677.326678289006,-113251.91864706171,-52900.26927917364,-63620.951449719665,-55789.54965326295,-53991.12818702176,-58066.719356089314,0.0
-42575.79200021907,-50183.42652552687,-116737.13574024406,-54560.13506202117,-65671.77243159983,-57400.131172078065,-55773.250274398204,-59973.55439567285,0.0
-43357.76315403176,-51028.45604671513,-118485.49039501906,-55430.5647050769,-66653.16999449494,-58466.27241583482,-56704.955878380606,-60977.65220836452,0.0
-44098.26697384575,-51890.85004447207,-120151.83986336018,-56247.21902633891,-67589.75832815298,-59629.735609517,-57549.40482171619,-61895.971301190235,0.0
-45274.296040353765,-53338.43469254197,-123297.25380788237,-57723.674223979775,-69457.95471333561,-61297.48858598742,-59095.4873136554,-63561.787398158805,0.0
-46436.144352691656,-54743.22196349502,-126498.54195846873,-59225.45583088088,-71439.69407236132,-62736.30303233231,-60732.735713437505,-65312.497719266714,0.0
-47082.142293734854,-55452.09280994326,-128063.42474288962,-59994.5978540131,-72448.79360987879,-63432.81296520603,-61628.428464452285,-66264.36882505118,0.0
-47626.71068594383,-56015.0099745489,-129164.16286514759,-60566.54630059854,-73059.6657112681,-64176.07463427774,-62240.31624871243,-66923.58731139805,0.0
-48621.3008536866,-57180.88245446127,-131608.0947330351,-61745.26268129371,-74392.36737804764,-65686.533809838,-63412.99084595904,-68195.0607714812,0.0
-49704.14690454594,-58522.62236225426,-134510.6838252056,-63104.11005371997,-76119.52636360875,-67230.4236531023,-64833.37057813156,-69725.56147306252,0.0
-50261.82258204842,-59217.30413520498,-136000.45959966985,-63799.99824372267,-77167.65889410715,-67853.45727747407,-65675.78799019991,-70620.00189043497,0.0
-50571.47783300145,-59532.72933370345,-136657.78486824068,-64136.8551792571,-77660.1880685498,-68098.16243703142,-66131.13623725592,-71095.62172001657,0.0
-51302.58936351685,-60318.57427082317,-138363.41294537598,-64985.42176594339,-78566.49405559123,-69095.30821505631,-66990.90906999014,-72018.23597716854,0.0
-52300.00664691418,-61486.1823745343,-140852.29668035184,-66186.23745992978,-79907.02293310466,-70606.30032170504,-68169.13809773966,-73293.26322598135,0.0
-52873.557433496324,-62221.87498638381,-142312.41606670694,-66877.1917317835,-80844.94799534041,-71457.04739956108,-68921.4169502878,-74105.48178289682,0.0
-53038.75649500222,-62450.525725224885,-142726.51402334965,-67073.70869941685,-81288.86827645115,-71549.22538705313,-69251.4923138487,-74453.02625222746,0.0
-53457.8337521659,-62896.64174310625,-143779.52347933545,-67591.55950823927,-81964.21607389057,-71944.55420220266,-69858.48209651062,-75098.75527072673,0.0
-54248.782066055996,-63755.714072013936,-145722.9545295062,-68543.44123782897,-82979.77351304132,-73023.5976552954,-70807.24747608048,-76124.0387389228,0.0
-54826.51525640194,-64429.8079758002,-147045.24182534395,-69191.53782482792,-83681.0977584039,-73968.62348461154,-71442.99719401405,-76819.66674611556,0.0
-54979.02575781988,-64672.70909970092,-147338.14605334762,-69330.53513922173,-83973.00811502132,-74257.92202556893,-71648.78849473067,-77044.22258198826,0.0
-55195.18023852186,-64969.830905209026,-147949.12961653617,-69615.31954166894,-84503.38179132894,-74431.62044842308,-72052.35307710216,-77467.63043907209,0.0
-55739.80710018359,-65573.09301110581,-149395.73388184936,-70318.32045180624,-85383.34149811331,-75006.87128268504,-72831.6262389821,-78293.94563869202,0.0
-56224.20676625082,-66076.07935398855,-150480.06671949866,-70871.40294092688,-85934.5407664814,-75677.63569388528,-73384.41843315594,-78889.30327513866,0.0
-56370.80906996633,-66244.39468421426,-150611.95766741276,-70960.41019952475,-85978.44926909887,-76046.31471011699,-73458.27417027354,-78978.79735102107,0.0
-56483.47347407331,-66442.73625286028,-150867.4436545498,-71072.37839988752,-86219.84036813099,-76288.66696510937,-73613.58216031219,-79149.47513178039,0.0
-56825.237957988415,-66888.67094412552,-151901.05426133214,-71544.70022548923,-86954.17921291561,-76633.15538011293,-74181.41238690134,-79750.69981564526,0.0
-57152.73986789301,-67231.34432880294,-152743.8243453047,-71962.14039037323,-87498.91375313429,-76906.56478077704,-74671.13502181857,-80266.04508451409,0.0
-57239.601731120885,-67257.05550795297,-152686.4846514483,-71985.88649654346,-87424.955209897,-77027.73389535057,-74693.55534648508,-80290.73008583297,0.0
-57313.30514528303,-67332.62579149916,-152617.06702780776,-71987.96606843431,-87343.19724122672,-77289.01945024276,-74662.35511647441,-80267.02584141574,0.0
-57578.180644120665,-67707.92617112877,-153322.1054882687,-72315.32259948408,-87812.3054217881,-77731.88527912594,-75010.88651315984,-80645.64413752429,0.0
-57793.22649024766,-68004.05251649139,-154002.55810279062,-72623.38532415453,-88348.11488212412,-77900.3659066544,-75409.67884528695,-81065.83708796625,0.0
-57738.23637552169,-67896.96444742347,-153775.55239265936,-72535.33098576433,-88302.78867428805,-77654.21148714432,-75397.79918930914,-81043.81025697544,0.0
-57666.84942405724,-67740.6645550847,-153321.0403114516,-72362.5995046156,-87991.01486879613,-77564.15319759671,-75214.75152506433,-80850.8861922968,0.0
-57849.54301417981,-67950.01445314354,-153621.26061910955,-72527.63638062506,-88086.96114131225,-77977.55368243309,-75328.69256934027,-80986.45036537077,0.0
-58047.778736076325,-68247.31972709514,-154163.2915326038,-72776.02217501016,-88458.05921480502,-78332.32907705191,-75590.903033293,-81273.65697901182,0.0
-57929.37249086027,-68147.00576382405,-153905.2231546129,-72647.62013648864,-88480.45516303716,-78050.78004505226,-75554.37393862751,-81225.20654211775,0.0
-57682.91142519232,-67812.92508086651,-153169.06028905974,-72322.42938031413,-88145.63639495158,-77549.82272606144,-75297.59461101433,-80938.21030773799,0.0
-57695.547601427235,-67757.92813656174,-153008.54040530315,-72284.91552509886,-87975.12765293321,-77580.32871657511,-75234.58387362817,-80872.22725320392,0.0
-57863.23565777917,-67951.91645760652,-153302.0096136522,-72444.22697219874,-88056.66276511556,-77979.64379497837,-75337.29637846728,-80993.5059234947,0.0
-57774.42897828252,-67912.82699625101,-153044.742744042,-72316.34400335347,-87987.59144030194,-77951.48563393354,-75226.96057409103,-80878.4387341828,0.0
-57432.9112186938,-67554.27413862289,-152185.69311515056,-71901.8085954711,-87669.85280624358,-77374.58495865707,-74899.8613160987,-80516.36986213994,0.0
-57235.07124179248,-67285.09327334326,-151639.21698758804,-71658.17927371262,-87420.08233578975,-76945.46039681921,-74710.2015831939,-80300.11205179489,0.0
-57276.65307507834,-67270.36302385475,-151592.78769366752,-71669.20153358635,-87303.4859646256,-77017.3790742052,-74687.94826549813,-80276.14139692133,0.0
-57221.601201689075,-67203.48259994955,-151256.31451669356,-71532.84144397758,-87043.03425299612,-77114.44417111282,-74497.61906286348,-80081.32444016304,0.0
-56906.14204148505,-66895.28223597046,-150364.65962352342,-71107.53037290071,-86621.80637608649,-76778.55241580325,-74086.54617315723,-79644.08740609528,0.0
-56582.449122441656,-66553.33028782943,-149588.79880336486,-70729.60631270823,-86330.55608052456,-76223.66433211966,-73779.73182502852,-79307.21629588732,0.0
-56438.92045549839,-66340.71381243556,-149224.36009482996,-70569.95425183496,-86162.8935344555,-75861.87151199828,-73658.43362931034,-79168.44303917907,0.0
-56308.92540355345,-66114.15535592665,-148695.39542540748,-70357.34158243694,-85775.2259340611,-75692.75302255695,-73406.64678071917,-78900.73957888946,0.0
-56024.13212309498,-65769.07770680322,-147709.4122967276,-69920.21194189749,-85152.42506395158,-75472.2526879449,-72909.55742856789,-78377.94506768913,0.0
-55693.14812672559,-65441.188450969894,-146792.2914827655,-69483.99663848476,-84704.3403196045,-75112.49196122799,-72474.65790737819,-77915.61044709341,0.0
-55442.1467290771,-65188.43989893434,-146240.43763850018,-69209.96500741487,-84527.63295678669,-74653.87247270363,-72262.51498076493,-77679.1991501674,0.0
-55182.90836410175,-64843.5932253442,-145549.40704552003,-68896.06326176011,-84183.50793605717,-74132.20691190143,-71989.13994923142,-77374.00218261982,0.0
-54831.22072992712,-64358.642627159046,-144397.22694619626,-68389.43614287252,-83453.56982218297,-73661.52367912563,-71445.52252653752,-76789.5369948929,0.0
-54488.141130142256,-63948.27443686867,-143278.93427253736,-67886.32461252803,-82743.19373956622,-73366.38214954513,-70873.37095071588,-76184.51474199636,0.0
-54215.17912409543,-63693.7797344378,-142573.1125755489,-67545.10119792796,-82393.07235349569,-73094.67903206137,-70521.6233579953,-75811.78850611385,0.0
-53877.897225044406,-63344.62565219972,-141810.26034651572,-67170.84848741679,-82094.91749246157,-72529.90670608272,-70207.7800500794,-75467.00110836464,0.0
-53402.97242397749,-62750.549821077875,-140534.4696212583,-66581.98701657476,-81430.50349153658,-71726.31860434212,-69664.23328234993,-74872.37990465584,0.0
-52958.02109705383,-62160.83866866087,-139160.50196936354,-65966.00312356613,-80571.29348841615,-71140.06285765319,-69010.30234963924,-74170.54559647343,0.0
-52664.9070273865,-61812.57951694752,-138231.3965882546,-65542.81844998125,-79951.19471152104,-70921.37353563361,-68511.86956713704,-73645.83736185482,0.0
-52353.28160695176,-61509.8925631889,-137435.60555658364,-65154.33887665404,-79543.7218812702,-70597.67056272506,-68109.33247098736,-73218.68969170349,0.0
-51844.13522439972,-60949.689821567415,-136176.1461392189,-64549.089283831614,-78969.81214455797,-69790.57691153313,-67561.55241786128,-72622.25179464907,0.0
-51279.95284277222,-60241.283932395265,-134637.2474637127,-63842.1897158051,-78153.95595936719,-68853.9012394207,-66889.64162651703,-71890.39565069233,0.0
-50893.781716290505,-59715.90043257919,-133429.54830669268,-63309.26684313965,-77377.29650928696,-68340.64738355626,-66304.11556947642,-71263.39830490453,0.0
-50602.400639816165,-59369.04255129995,-132505.2521910418,-62891.586617111,-76757.7293923371,-68124.9643141169,-65803.26719346791,-70736.14092768592,0.0
-50139.10765416162,-58889.770510466245,-131288.172689754,-62304.44170940416,-76119.97888179559,-67600.92144993706,-65201.69659160535,-70093.45506572258,0.0
-49504.26125977653,-58186.75800865395,-129708.82922081297,-61542.43232871059,-75364.30566521,-66630.71758696357,-64494.36871980685,-69323.79516891006,0.0
-48957.56097289003,-57506.84844766883,-128270.95866580878,-60875.32446821806,-74592.92160420018,-65724.90005798794,-63853.865431037186,-68624.72263584631,0.0
-48582.27658102704,-57001.028127466336,-127126.94145895483,-60370.105316810215,-73846.34622277538,-65231.11389134436,-63289.53934181924,-68020.08285226958,0.0
-48170.696493525065,-56515.57486874672,-125871.52045527179,-59799.28896083339,-73045.86119379467,-64854.77292188181,-62634.0783508475,-67327.14238503823,0.0
-47585.99437101316,-55894.011898446144,-124321.13230034274,-59055.9930656927,-72221.18091475626,-64167.71558302987,-61873.80755881601,-66515.64300375083,0.0
-46960.52837544719,-55202.092412255835,-122791.39979026049,-58312.64061629106,-71481.47868716638,-63210.23083094482,-61179.226679478066,-65761.43425601297,0.0
-46442.15081141778,-54553.97554320184,-121455.47737009944,-57686.31397371448,-70755.25824417234,-62339.0061931241,-60576.846573369505,-65103.4374261539,0.0
-45974.92151424619,-53936.16186832427,-120059.16343120152,-57056.78532076742,-69863.27064398488,-61714.27747572175,-59891.399242183754,-64366.95947626354,0.0
-45444.65627917474,-53307.29483271174,-118466.77068664171,-56325.26292970496,-68869.91787783994,-61172.32742134973,-59076.186369754796,-63499.88029149098,0.0
-44861.09786095634,-52686.132434224106,-116919.0373251344,-55584.393157065795,-68036.67701827947,-60485.57776037866,-58311.30744777493,-62680.85455579921,0.0
-44284.142257645064,-52052.8357561611,-115527.35586824111,-54909.464064780484,-67366.93174713719,-59594.253981535876,-57676.270507910005,-61988.04605250194,0.0
-43708.115395850626,-51338.415737962554,-114031.03238903917,-54211.64089809259,-66552.55266774008,-58644.92946297933,-56998.24987358107,-61246.76953822977,0.0
-43121.392333741045,-50580.56217524711,-112309.85129900584,-53431.77223927663,-65479.988197046754,-57859.08789281873,-56158.64221674706,-60344.6938965235,0.0
-42558.74028914305,-49914.1304548206,-110653.4182519959,-52670.23864126265,-64442.553475753506,-57277.185016900534,-55304.12221923607,-59438.247839351585,0.0
-42007.05537043331,-49331.13057264589,-109227.9844051443,-51984.62887750702,-63666.478870098326,-56640.17314685096,-54584.76177069031,-58672.921002870695,0.0
-41386.54077729274,-48646.03810128866,-107737.31909669205,-51259.32552738224,-62936.99362378149,-55695.58105549294,-53897.25182652526,-57928.59347499624,0.0
-40703.39514017034,-47803.48601783873,-105950.54975632094,-50421.30660583025,-61960.0655568793,-54602.93951726627,-53083.29324804752,-57043.81283687566,0.0
-40084.67008345435,-47006.06417924066,-104143.51266694242,-49597.96689086102,-60835.84523492871,-53771.82728254789,-52204.82124046041,-56098.58881001345,0.0
-39571.34836955083,-46397.36199754393,-102625.4786063032,-48897.572782425166,-59870.72175040743,-53253.9510781124,-51415.93776115965,-55258.56657954116,0.0
-39017.594387602396,-45812.87014689333,-101185.52562000375,-48200.94171918494,-59088.069448391376,-52612.199422804726,-50692.01869062486,-54484.58825649884,0.0
-38315.120802913865,-45032.99774603639,-99454.9436602586,-47359.51326485134,-58230.50618540993,-51555.225274143755,-49893.1438453444,-53619.06914573473,0.0
-37584.892269821954,-44136.91439254007,-97543.50479775411,-46458.958189878,-57183.30600279679,-50397.33992528017,-49013.632747915464,-52664.77395089988,0.0
-36993.3493602586,-43371.61880112438,-95835.0577228989,-45677.42931294124,-56104.98859417802,-49600.73927608402,-48167.16254600257,-51756.39675255012,0.0
-36480.137241222736,-42759.92057823857,-94331.50808213152,-44982.52346667828,-55140.18658357364,-49079.965219374564,-47373.816151800915,-50913.55209522565,0.0
-35852.799795832354,-42084.413319547224,-92686.79517753073,-44193.68064136495,-54241.84661396344,-48336.52479512885,-46549.912369362566,-50032.26894326752,0.0
-35097.081421727315,-41239.26302737203,-90813.62185616583,-43292.40654925005,-53303.7688721343,-47207.22240946819,-45681.884759073204,-49091.913173452194,0.0
-34391.28865439561,-40371.250804703275,-88987.69931084002,-42439.34027742306,-52299.69351891348,-46082.56209184642,-44837.8882899868,-48176.82730848468,0.0
-33818.04716877471,-39627.10923349722,-87344.18734074986,-41693.88056516228,-51253.24241415974,-45310.620097276464,-44017.6488644012,-47299.522475851416,0.0
-33251.24425456331,-38952.12674264394,-85694.08790369071,-40932.16517396256,-50204.42219996473,-44718.16097719642,-43153.30853443815,-46382.69117328195,0.0
-32570.76650297036,-38215.51318637903,-83903.19492687192,-40071.71863628817,-49219.91940703905,-43905.158326973426,-42257.77011622588,-45423.31375259306,0.0
-31833.790235490553,-37396.601849286104,-82090.8715880569,-39191.75480426927,-48308.44138365509,-42804.22242591821,-41414.30585694299,-44504.47093022677,0.0
-31157.21552919015,-36569.02479192436,-80355.10902195323,-38372.55273080945,-47351.734869657615,-41722.15275152799,-40612.25672576603,-43628.45158953297,0.0
-30546.725611422946,-35786.552627227,-78611.50766135896,-37573.76779978347,-46253.36075911675,-40903.129027006915,-39749.021541798604,-42701.06931957282,0.0
-29924.14862338144,-35049.18671790636,-76812.80621851314,-36739.26131519792,-45124.47159465683,-40238.65456961332,-38816.954267948604,-41711.21697264131,0.0
-29248.313652295103,-34318.78047030194,-75051.09355297354,-35891.99835396786,-44152.06780051118,-39434.01322382486,-37931.10523571734,-40764.95243211289,0.0
-28542.107946818178,-33534.46126621863,-73339.85270934891,-35060.72849472744,-43291.0805592564,-38373.742109350685,-37129.20492382226,-39894.39104425897,0.0
-27845.26865172834,-32679.89869577925,-71550.41459703937,-34219.10364231897,-42303.67971022869,-37260.77369037265,-36299.43761138794,-38990.999509715155,0.0
-27187.573591263972,-31839.24080934752,-69671.63468401643,-33360.442666764706,-41131.48914119854,-36374.761349595574,-35372.608019025756,-37995.4981967478,0.0
-26566.9331529574,-31104.060281845406,-67880.4742371013,-32532.402281671788,-40004.85628982608,-35713.48371493845,-34442.95158486961,-37006.92828368051,0.0
-25926.439245174934,-30418.65745578408,-66225.93602600979,-31735.618435066575,-39088.83330695621,-34962.45956433212,-33605.20040227836,-36111.25102643195,0.0
-25211.60857850525,-29629.8302779059,-64501.36026798125,-30893.46095489692,-38220.26947914447,-33898.56170822878,-32794.742913502065,-35231.74467154104,0.0
-24467.037790222406,-28723.028323745588,-62591.25351830669,-29986.100714285716,-37165.45386428999,-32724.745569720886,-31904.423366825264,-34264.227808054835,0.0
-23799.120712570613,-27869.025671674815,-60695.93743351374,-29109.57111816388,-35977.64558020316,-31820.63119034281,-30962.86189161869,-33253.37789377047,0.0
-23214.56199200048,-27169.551811311438,-59007.742517288,-28323.000537934568,-34897.74015833337,-31197.958242642788,-30074.61132511461,-32309.38449754655,0.0
-22588.12022245167,-26490.58046544086,-57379.36298839243,-27537.360735431783,-33988.84722037466,-30453.14399261022,-29247.517360314752,-31425.255124153235,0.0
-21847.771786113757,-25661.885572415536,-55565.70821174108,-26657.103755575095,-33068.26229980104,-29343.140872005497,-28399.02898579483,-30504.986250555892,0.0
-21096.133615373234,-24743.128252067596,-53630.24078596806,-25742.748658361143,-31999.506353263012,-28157.809331962213,-27500.94779257229,-29529.96264103015,0.0
-20458.974797822553,-23931.73402855268,-51829.629907272254,-24913.660651535978,-30868.92599789641,-27309.827603637063,-26605.78872324723,-28571.322320425992,0.0
-19888.046909377117,-23260.156215155577,-50193.117868770634,-24151.986899771397,-29827.693046044697,-26729.3452504294,-25742.93827214502,-27657.345138415923,0.0
-19233.616940991946,-22556.219712683414,-48501.467938277274,-23336.322259830034,-28891.28174821682,-25962.80011517089,-24886.59255244723,-26742.84288809084,0.0
-18476.801568849412,-21708.07214765354,-46658.30413787068,-22442.952760022457,-27952.398513708577,-24830.583942268873,-24022.860005005427,-25804.86280064946,0.0
-17754.221949360715,-20818.223004058502,-44813.84353981056,-21574.74459197849,-26927.06947806142,-23674.15762536215,-23165.697006520313,-24870.853369120145,0.0
-17146.978516322244,-20036.074289206423,-43090.464199790105,-20787.349569256636,-25836.171653341353,-22855.846275603108,-22306.676779222653,-23948.225014748623,0.0
-16567.69243248975,-19351.36936280108,-41414.77221035243,-20011.01497050875,-24775.438679942148,-22258.91730457027,-21424.75805273798,-23012.929953626357,0.0
-15900.603446235307,-18633.368272714382,-39681.347871708094,-19174.25999319362,-23817.775203218345,-21475.371396996812,-20543.101832381537,-22072.584729589755,0.0
-15165.448445485328,-17813.96196560524,-37907.031921172675,-18308.043371068223,-22914.657074973937,-20372.158992001765,-19702.35127914927,-21160.98863976601,0.0
-14471.723089177205,-16960.873746695732,-36151.42328515518,-17477.7395942297,-21933.451385620654,-19250.082148966056,-18881.25535879659,-20265.935570938007,0.0
-13862.417002752469,-16178.766525461468,-34421.08556957196,-16686.421536056154,-20833.60457303776,-18424.4066715534,-18019.880396316126,-19339.57166825106,0.0
-13273.370571670339,-15486.13659098236,-32715.707110439602,-15896.298864148084,-19751.615775019753,-17816.44444011172,-17126.128276666797,-18390.412688173266,0.0
-12628.968877680287,-14797.792069707815,-31048.32008870116,-15090.211012881364,-18826.7471208518,-17070.238801681284,-16274.45327898777,-17482.502093525352,0.0
-11930.093952561685,-14020.542796265916,-29377.447232073184,-14272.441055184621,-17981.03650423629,-16019.283254187216,-15480.119893290599,-16623.08065988616,0.0
-11243.164437965212,-13171.892805840514,-27638.46709581217,-13449.65147438796,-17013.23274494695,-14903.773413448387,-14665.586817855696,-15739.343898292012,0.0
-10623.647382025525,-12373.684219504177,-25876.405701026626,-12642.184388449537,-15899.248747616028,-14059.958082957935,-13787.47706780827,-14799.577736422778,0.0
-10051.371422410242,-11697.030488864708,-24215.43451575855,-11871.870559529118,-14840.360277886733,-13471.648018756898,-12911.872523325996,-13872.245669137788,0.0
-9445.167939801084,-11050.398512648977,-22650.66881098559,-11114.419937804514,-13967.952630735394,-12775.153993697539,-12107.747286000538,-13014.030134229995,0.0
-8763.209252305942,-10291.8017212145,-21022.76284368937,-10317.705986836278,-13143.85620777896,-11746.661400967982,-11336.523127693861,-12175.037212990566,0.0
-8070.3920308957095,-9437.523582461987,-19268.906501223195,-9487.380933018125,-12169.028522853198,-10626.201025870063,-10518.913393204677,-11283.0079674524,0.0
-7460.6568629680505,-8652.472829057651,-17543.124424884998,-8694.937264071626,-11077.483085904241,-9801.54839269153,-9659.764555773916,-10360.658335386968,0.0
-6920.394976629727,-8012.85527631878,-15979.871758228193,-7969.249167180098,-10075.771116060198,-9260.915096259325,-8831.070742634576,-9483.768680489517,0.0
-6335.776124689612,-7388.640198792556,-14474.10891388829,-7241.201155057618,-9240.806491573003,-8592.37340468419,-8058.074322123099,-8660.826825464388,0.0
-5657.135981871019,-6631.390413036224,-12847.422589743388,-6448.478004012825,-8421.878746191365,-7563.4140908156705,-7292.825316528259,-7830.01483962945,0.0
-4978.83899855186,-5795.194978560139,-11130.81661058856,-5636.94827673787,-7468.215817962803,-6459.90833082324,-6495.712265485609,-6960.820153094214,0.0
-4402.734587453701,-5054.708235469463,-9505.70917268505,-4889.333860231044,-6428.391476110175,-5683.280665634438,-5682.270880366502,-6087.521171812253,0.0
-3883.780002606196,-4447.283543646162,-8016.24833642358,-4192.989943995881,-5461.3310629967245,-5178.4261978131635,-4883.485227248258,-5242.314535046065,0.0
-3294.9835254085847,-3825.4978854210667,-6518.309620169225,-3461.461894540155,-4625.003100260472,-4513.83690877972,-4107.567264477548,-4416.256085225791,0.0
-2618.988472546545,-3076.700358917801,-4917.983109643045,-2675.05463331069,-3818.150823670958,-3496.2119097673517,-3348.666228089869,-3593.3152375652307,0.0
-1972.2341255379793,-2278.6620185236134,-3297.478233341124,-1907.9582745538128,-2919.4453038144097,-2436.2990148563754,-2595.9638720145736,-2773.1426927941784,0.0
-1431.499496850056,-1576.751240987609,-1764.664687156457,-1208.464274059911,-1933.8120420709317,-1703.0319762913175,-1831.8689254138162,-1953.3044134380511,0.0
-929.6442722486047,-985.2133480030564,-307.01018046494056,-533.5360561996109,-985.3219121891312,-1216.8464103716078,-1056.4408099617046,-1132.7586872704442,0.0
-359.70715749393196,-383.4439805742219,1156.468691671209,176.76034153144053,-167.66531336225256,-575.4235688221099,-302.59292131271224,-329.6055258265368,0.0
278.51346633206634,319.54623213699773,2662.286031895224,917.3869583450079,586.2606600449215,392.00136277204973,410.85130565561667,445.50146099796245,0.0
890.2585603487623,1073.151617969733,4184.92933176487,1641.2102121619841,1428.8024739111806,1404.5554350260481,1120.1671053198174,1220.4362173529764,0.0
1417.4533645328904,1757.2463111541228,5678.509113954237,2325.464092401349,2389.910270701883,2119.594198454288,1868.0337034105432,2025.0171551890148,0.0
1907.4525664687853,2335.3599957226984,7109.310313295931,2987.894976659313,3320.4688168425623,2590.445593949779,2630.4083562194855,2834.3214872869194,0.0
2444.535373553546,2899.804840359257,8491.743809448759,3658.2755718493327,4089.585165636291,3187.8064258920817,3344.5582242503974,3597.071500525391,0.0
3042.502325609731,3556.9008999273124,9894.783238343605,4350.098046454145,4781.075696436925,4101.237043103023,4008.578712948407,4320.245211430964,0.0
3631.3534368590254,4287.335767538119,11361.005553484889,5049.797786920076,5587.510899128055,5086.734831929013,4691.621357613971,5067.493379624377,0.0
4145.900330090946,4964.476490091175,12825.047411952944,5724.731086889254,6534.819728632148,5794.331477476544,5427.980448387531,5859.734310493858,0.0
4608.929905017622,5520.125604041882,14185.545898196158,6358.73551451534,7437.805456677348,6240.176827862271,6160.743268335294,6636.3847818074055,0.0
5107.280294100013,6043.135538153357,15463.871624546642,6983.06353704422,8160.478583587291,6790.006101684472,6827.745236780331,7346.753660313739,0.0
5678.464056304961,6664.675347593004,16791.70214135715,7640.092284210235,8812.084672774316,7661.793430090775,7455.10641681064,8028.071837508331,0.0
6253.974011263001,7371.908256168383,18212.725284033633,8316.409305449457,9587.449737613397,8620.324690531186,8113.321981386607,8745.449087048073,0.0
6747.592184524837,8020.918788996941,19605.65449022156,8952.89922183961,10490.929167331247,9297.114967155034,8812.397431136182,9493.988370080948,0.0
7177.885774614393,8540.02846237779,20866.326664609263,9533.576931210908,11339.866439905338,9703.106212644343,9495.907978616784,10214.440765715633,0.0
7647.763010695986,9031.649476334314,22069.950514506043,10117.843297566817,12021.651130475413,10216.723195802866,10127.589472363064,10884.646892710012,0.0
8196.264525820225,9625.354841107668,23352.2049889561,10751.5047811619,12641.222641302184,11053.863323259482,10734.679310478477,11543.24883187554,0.0
8738.483040653815,10292.40933200697,24699.824178945844,11393.52603692652,13366.129453254991,11964.759854241207,11359.476859844846,12225.476400580597,0.0
9188.064923401807,10891.920679343324,25979.364595861796,11977.921347713058,14203.434789823854,12587.488877103602,12005.325064125038,12919.648519749986,0.0
9584.67144938683,11373.615684411321,27143.296142245425,12515.454453330532,15003.451494184625,12955.534402115296,12642.303395393046,13593.95659054598,0.0
10038.601440364206,11842.605024374247,28292.02975024969,13077.9089383502,15659.929840386843,13445.331456635302,13246.1907891065,14237.265359712217,0.0
10571.020561342862,12406.318040690869,29515.525775281352,13689.204414691643,16245.176850242893,14245.380620930982,13823.061757836691,14864.704289017931,0.0
11083.850524827365,13026.878458596457,30770.201796746856,14291.799152111738,16909.937867474393,15098.10442935306,14400.590352549063,15496.484155276094,0.0
11499.98013850196,13583.12011781558,31957.92119041969,14833.433571095758,17687.443637560733,15666.829674374956,14997.585566074576,16138.468410031324,0.0
11869.567948799162,14039.179990726541,33060.969109880345,15339.059515662722,18450.886892799193,16001.582510834762,15599.171315749663,16775.290438243454,0.0
12295.765668948927,14484.67816165115,34148.33316228474,15869.116136735667,19075.473992749154,16461.613825170094,16169.99773741125,17383.509997308458,0.0
12791.301917706658,15010.224352705674,35277.78435494736,16434.732868395844,19609.88643926313,17218.61240172558,16703.00065542216,17963.88947272015,0.0
13267.58234482984,15589.75456231735,36433.686590398036,16991.100151290153,20219.220480808235,18029.20613865136,17237.63903132875,18549.531055968764,0.0
13657.944038159529,16118.059420851716,37553.2352028755,17501.19343909175,20959.14146122925,18572.17355127155,17806.58657896332,19161.41054728208,0.0
14001.74787347894,16547.03288699941,38595.11456304979,17977.581280034552,21689.193659678138,18880.171989018774,18381.046261151103,19769.2615681226,0.0
14389.095403422149,16949.18213370464,39591.47358201851,18463.695608170416,22261.600621959882,19291.392641597045,18907.386752739985,20330.012203936338,0.0
14843.092334168077,17426.62457740134,40619.18095394048,18981.499171674604,22736.23480392682,19990.982296873026,19389.12784817804,20855.224609382964,0.0
15290.377878051471,17972.241843278094,41699.52595182516,19503.25355894585,23300.87356513296,20758.55599463656,19884.251121151716,21397.085753080915,0.0
15658.820774204705,18475.719717365537,42757.01631598435,19984.211107377596,24006.19504783999,21268.076614982754,20420.271356089535,21971.212276044032,0.0
15975.932465396605,18874.71836162082,43716.57485091165,20422.421778462885,24694.777082524404,21536.19523555584,20955.233913067157,22534.00292322736,0.0
16333.517618694812,19241.837234507148,44616.32853260071,20865.886473772705,25219.169624037415,21902.658495710755,21438.544954509634,23046.264702771692,0.0
16760.48298464009,19684.994472203085,45560.91151080342,21346.95834760013,25647.40039730689,22562.18064761268,21881.63775672672,23529.006961903688,0.0
17179.902206538478,20193.966487091966,46568.415834678846,21833.351333849616,26163.947346355402,23291.865136207885,22337.97870762973,24030.28347819909,0.0
17512.335751879615,20651.510597535744,47537.06527810741,22268.64415302482,26811.11588871517,23755.181445384525,22825.800404784623,24554.928392855807,0.0
17787.102903431325,20997.84832417071,48391.04533533018,22652.232774746,27435.422172328726,23968.41839422535,23305.91382556434,25060.717854701594,0.0
18108.136594103198,21318.73712531288,49196.855472191426,23047.490990160266,27904.693083624526,24285.327227241847,23742.214054143136,25522.940351799305,0.0
18511.387126383986,21729.689050755427,50069.520440901004,23495.126261060872,28293.19499166194,24909.73514070617,24153.202469911375,25969.72830000607,0.0
18910.515053381183,22210.945186203717,51003.29531308384,23952.40438308501,28772.71038974584,25607.753495612094,24581.139973057252,26437.606687562886,0.0
19213.42896647597,22632.801027547415,51880.732280083255,24350.641860043237,29372.33043818119,26028.108943699404,25031.01651928962,26918.97770399855,0.0
19450.3390098269,22937.57370340955,52642.23226224535,24691.242904175317,29942.759027839944,26190.052981717952,25465.469905507936,27375.26217311475,0.0
19731.361506217974,23217.444741803443,53365.285541201156,25041.81143565153,30359.656608346348,26456.77023627773,25854.11027067366,27787.9497602658,0.0
20092.440231920653,23585.500683309758,54148.87748416635,25439.159271328306,30693.426671559493,27030.80182544658,26212.549275480236,28180.821785327735,0.0
20451.433373126296,24023.772837160333,54983.410694357066,25844.433121858234,31117.12464707296,27679.182412515253,26586.362706116084,28592.54003278025,0.0
20727.87590519126,24414.62864141706,55777.78093618648,26205.09576412949,31675.220613093657,28062.781676887982,26996.59339198739,29031.912144891467,0.0
20952.036192687843,24701.89206489117,56482.73733846765,26525.963574072768,32221.337981770615,28203.173171728882,27410.629537515975,29465.404771119152,0.0
21217.54681357811,24961.100633696795,57146.10340522999,26855.824680077872,32609.08695426316,28446.660348900998,27780.15452731815,29855.822733340425,0.0
21546.211054724306,25291.06683604484,57839.92382283388,27213.765934834435,32888.75135322316,28981.101635985633,28101.85563583659,30207.641740967676,0.0
21857.2069119837,25677.238221977983,58566.437793748075,27563.166830234535,33239.30382425785,29576.737201308188,28421.40809239761,30560.309866650707,0.0
22082.224211161065,26015.703405579574,59261.86100625595,27866.401140097594,33727.75815573621,29906.113719577646,28774.085250971984,30937.535261985475,0.0
22261.335022823423,26257.433793207845,59880.90179403642,28137.56726550855,34219.9286112383,29994.74480975849,29137.22736357513,31316.147365410332,0.0
22489.173888801866,26474.662283493722,60457.542186376086,28424.225319733192,34562.365055576265,30185.66855221939,29461.06177073629,31658.111608988213,0.0
22787.73267669948,26765.92050834148,61065.28888186905,28745.403134705008,34797.88445044654,30670.946844007754,29740.93117151497,31967.010344802802,0.0
23078.83176307287,27122.381211679163,61719.89260056832,29067.598043859572,35108.085957590716,31230.199860686724,30025.588880459283,32285.072664938976,0.0
23288.167190773678,27436.18058660014,62350.09993027108,29346.22015535343,35558.09952925717,31530.34977437477,30345.336537790037,32629.6641000867,0.0
23442.4264769017,27644.703546198587,62887.983732530876,29581.600098057974,36003.800324250005,31579.646446247476,30666.088029882703,32964.12820666493,0.0
23634.301942270096,27818.073916248115,63368.86217193295,29821.647981159807,36291.755980458955,31719.30746295523,30939.73481291352,33251.173474974516,0.0
23897.570400486456,28067.381875178697,63889.883732668604,30099.493996310717,36476.467098310975,32157.596991360573,31175.928133500332,33510.128397067005,0.0
24160.678451203574,28390.656049334,64472.60577096675,30386.9809492921,36743.435273767434,32682.407622861563,31428.08909303944,33789.95815594174,0.0
24344.964066774897,28674.34533120932,65029.214533200764,30631.695398623422,37150.8581548129,32952.35070558143,31717.559332230194,34099.57393852534,0.0
24474.242338509197,28851.316524291025,65486.43323283466,30830.070615717937,37552.62025963417,32968.26795161289,32004.930268865657,34396.6583436745,0.0
24642.68353260975,28992.783901677245,65890.27322449643,31033.898960463186,37799.065423409455,33072.336377029744,32243.92200035724,34646.05009352575,0.0
24880.738044758396,29207.303543831684,66336.88511408129,31275.289427436936,37940.89586645977,33471.380996498265,32441.47252540337,34864.592489535746,0.0
25110.81515470246,29487.878834215793,66834.46248315557,31520.506810355917,38155.57495387182,33947.791375519,32645.76965951577,35095.53824957155,0.0
25256.967884976428,29724.682436185605,67297.56703143421,31720.46553710915,38504.918386001555,34162.17242327433,32883.270685196934,35352.80628782977,0.0
25351.35597438207,29860.19644140102,67669.98910091275,31880.877188540195,38854.416137657725,34125.05943195523,33125.40221095842,35605.251318675495,0.0
25488.54736045151,29966.634372998,67999.06629640512,32052.335040359067,39055.434265977834,34182.861234909076,33325.88980740098,35816.98907412317,0.0
25693.248208161283,30145.77530710457,68365.40745348364,32257.251467317867,39150.56096793673,34538.99511939081,33483.29190348528,35994.55190186981,0.0
25888.210322433726,30389.519202792595,68774.21887363073,32460.4548282641,39317.25024578208,34974.80796665414,33645.142011737975,36179.28970485808,0.0
26002.617941138244,30592.913171252887,69153.8397235192,32620.27652329747,39624.499897562004,35153.24245453408,33844.72304547659,36392.54851885822,0.0
26069.423794556264,30699.84692862237,69453.47315816462,32745.492502255616,39937.91225969405,35084.02181944008,34054.89162201352,36606.199910424446,0.0
26180.462011283515,30779.89735121785,69710.63950855836,32883.33823708933,40101.97017087524,35110.698548069784,34224.155637513795,36780.60338975932,0.0
26358.963767465364,30932.178143201436,69999.76440740695,33054.226230049695,40155.05727302972,35435.49250386571,34347.602849151066,36919.89287793277,0.0
26526.53563073548,31145.846907659736,70331.41950682926,33223.3229710085,40274.82053221047,35837.906060625704,34472.76283644249,37065.73791147458,0.0
26610.431019431217,31313.589021500047,70637.61130934405,33347.54531112818,40531.78329683734,35976.83797078314,34632.65579213999,37238.293732177466,0.0
26642.689494648355,31378.770899248644,70861.00150714937,33433.10162115679,40792.673110925476,35858.955876839944,34799.307056660255,37406.96295451495,0.0
26717.17721457122,31413.34572617006,71033.27587256194,33527.88124350248,40903.13817782934,35830.78911686874,34922.81520866329,37532.73238850717,0.0
26863.014432259348,31523.965787228648,71236.32854038694,33658.127776795365,40906.643637227855,36106.133579205474,35004.03995309385,37625.76671735498,0.0
27007.0356206057,31707.65924462104,71492.55948540561,33794.76851064554,40987.455653963334,36475.36391781941,35095.941322970146,37733.918342925586,0.0
27073.052823091923,31853.82108457878,71731.48724381745,33891.93085682555,41213.231789781894,36592.60047217492,35228.54992994298,37874.88512010739,0.0
27083.591849447446,31893.370025667107,71883.31618431424,33946.868705097484,41439.23204336523,36447.9072008573,35364.607412722995,38009.0641614858,0.0
27128.77157210915,31891.830988646903,71977.97931357153,34004.63716314047,41505.38691059534,36378.907888847956,35450.19620522662,38093.83659724783,0.0
27241.4201972214,31959.966821002727,72105.79246883442,34096.29366012504,41458.67103036369,36604.61318580182,35489.41401930184,38143.33216235906,0.0
27351.84502699025,32101.59776769103,72290.28836995363,34195.622043898795,41488.22798006364,36925.45657277543,35538.33077744903,38208.651597203636,0.0
27385.68136150535,32210.91321807023,72455.46424249804,34256.10846954651,41666.13931260018,37002.642917019795,35629.01035933299,38308.15701301326,0.0
27368.058153400496,32220.909252039426,72533.75262244503,34276.37419270295,41852.64409070378,36827.0291878138,35728.06000482795,38404.24763696248,0.0
27390.70667390353,32195.167783459143,72563.41767481888,34304.13355899303,41888.46669762743,36730.77290073658,35784.307947329056,38456.38198594601,0.0
27484.009977393158,32238.82642778621,72633.36949298764,34368.47730495645,41813.615487065166,36926.003527642744,35798.10935489174,38475.62734659372,0.0
27572.06497747135,32349.591479229846,72753.83771948457,34436.09401131377,41807.429722379566,37209.6057232162,35816.44324874548,38505.233036560894,0.0
27576.158194529915,32420.48662041873,72841.93785828992,34456.966164362086,41939.29997502647,37244.276376291,35866.93698428018,38560.38193507682,0.0
27524.433384138083,32390.87080676775,72840.1429078919,34435.58528050021,42077.293734220744,37026.45686621621,35922.7428389698,38610.66601108565,0.0
27514.55296489679,32330.913134476294,72797.53958911468,34426.4286832633,42069.701712748014,36892.64071845276,35940.49414042284,38622.71154161643,0.0
27578.512482666963,32345.64492134946,72800.17298190016,34458.01899969326,41954.72982637673,37054.80565557855,35919.76983791395,38605.44258967527,0.0
27640.666653874327,32431.691393210214,72854.5920624101,34496.10271507497,41909.445820073124,37309.56882735913,35905.81700682235,38599.85009033194,0.0
27624.057820609043,32483.53773897601,72883.65336729867,34493.96083307062,42007.39851297369,37319.81448797926,35929.71185727215,38625.200403342205,0.0
27554.19095414847,32436.702482109024,72829.28009317798,34453.9283457997,42116.3110186549,37077.061646036746,35963.36043799546,38650.54572549224,0.0
27521.661377432265,32351.959122839868,72726.39813595965,34420.165405639505,42074.57094141164,36910.74327175157,35953.6546517479,38633.1274840424,0.0
27556.494905167143,32331.10695307078,72653.77423321384,34415.85587206134,41914.48822453327,37032.67425284688,35894.91731360782,38576.79023600866,0.0
27588.753530278747,32377.21643452513,72629.40439524886,34412.94850731103,41819.822657538694,37245.25665398431,35838.74392958671,38528.51783865977,0.0
27546.569021457286,32391.58453223837,72588.56797687252,34372.58350694497,41873.11355661937,37214.41448401475,35824.07445844029,38514.48388661592,0.0
27454.91198582911,32311.495886568082,72471.30938771652,34298.769060282364,41943.49868007784,36931.08186303448,35823.880827511806,38504.02446068892,0.0
27402.161235688567,32198.385495255174,72306.71819076243,34235.33224722704,41868.392437191476,36727.426611443705,35784.00671488416,38453.36528769598,0.0
27416.9091604801,32154.11880769519,72174.72935317126,34205.87087556243,41680.48015486717,36819.93016429281,35698.7585503824,38366.88223983814,0.0
27425.82557946388,32176.638665075126,72093.46842579357,34178.91094447642,41558.1613012319,37007.87225202947,35616.254258433866,38288.3714856253,0.0
27353.78822408657,32160.99450792494,71992.02083735334,34109.334501880105,41575.00975529889,36947.800987358874,35570.083491068275,38238.832230992244,0.0
27229.199777044076,32046.322531313905,71808.28166182169,34000.67708904701,41600.39591309645,36627.75911021858,35533.94976446744,38189.16863469383,0.0
27148.99103827316,31902.24306643672,71578.75381799761,33903.574192401444,41480.96499948458,36387.095106400324,35460.3277235371,38103.14427355861,0.0
27145.963302027343,31835.362754121168,71390.42694989809,33846.833495608866,41255.70314232841,36450.00623354336,35347.49637839709,37988.96638981824,0.0
27142.181786855333,31840.140936224467,71258.59867157563,33796.60930382303,41101.68007417129,36615.20081542394,35240.481051165545,37886.569854271474,0.0
27055.57785505032,31804.909787039986,71105.35320693676,33703.16035430406,41089.46724288536,36533.14870703551,35168.606340108105,37811.913972388225,0.0
26913.174348310746,31667.229126343937,70869.00735419807,33570.80641749874,41089.84148497873,36189.410397087224,35107.22593227011,37736.65199068714,0.0
26813.893569755623,31499.538825698808,70590.9501031361,33453.53328473384,40950.84536755261,35924.94239072583,35012.308034174595,37627.567597822934,0.0
26789.623533647446,31408.53173235016,70355.53829796718,33378.149019335935,40705.49266490665,35963.303789508354,34879.47888103241,37490.695855865735,0.0
26760.630782517837,31387.058173794554,70170.44257153764,33305.386156465414,40523.23772195472,36101.311674603145,34748.21113827454,37361.05263146194,0.0
26646.879511211333,31325.213047270816,69957.55440856231,33184.598255369514,40475.42967482263,35990.79879231709,34647.26778836167,37254.25768905661,0.0
26478.194874131386,31162.08794664743,69661.15256950902,33022.66789963313,40437.99195032319,35618.52948491591,34554.388167641184,37144.65361408639,0.0
26353.91054055844,30968.137754799427,69324.97829384456,32874.113975598324,40260.51016165632,35323.9655435989,34425.88252080093,36999.678183231845,0.0
26307.71741334525,30850.927048546157,69034.00505250807,32766.870296449102,39978.15142882847,35332.426447099584,34259.37251285156,36826.86287964456,0.0
26263.122648255652,30807.76002313382,68800.28485551485,32666.376371976046,39765.84113276999,35444.772668003374,34100.533267145016,36666.1919474296,0.0
26138.95714702468,30728.37097709264,68548.01951943454,32524.60849729112,39695.399003880026,35310.74116726425,33981.48370354603,36535.96520525574,0.0
25960.185795949386,30548.24129983122,68215.06371998164,32344.85606193672,39637.028754439205,34913.67401917483,33875.73223639008,36407.17559256833,0.0
25822.882867867986,30337.80439753527,67835.12506584311,32176.236472636658,39436.300892076775,34596.91898336399,33732.147685981814,36241.77905593134,0.0
25759.2861552307,30203.71635541911,67489.5936651444,32044.620641358633,39126.77835264675,34588.21385928916,33543.219283521445,36043.89391284406,0.0
25691.494966690032,30137.21371785582,67195.64741803742,31916.499259448126,38881.43972243414,34680.05492979017,33353.562483954054,35853.04618856356,0.0
25538.815498066648,30024.32348018932,66884.25777216692,31745.667565220218,38772.40616259798,34512.60017820834,33198.08735553629,35689.57708922926,0.0
25331.239786452505,29806.197345980814,66496.83263521244,31538.290913562472,38674.66856301239,34071.891082169335,33056.61020981568,35528.88285837849,0.0
25172.715555476403,29564.949471045307,66070.34165016,31347.96900659692,38441.237532537765,33715.81716808508,32885.72183991502,35338.43303334961,0.0
25099.45944632561,29415.367853916556,65689.11810142707,31202.823414793103,38111.09811848011,33685.70801172266,32681.036280275763,35124.29171644062,0.0
25029.649037667237,29346.217865521874,65367.52053231036,31066.12345137929,37855.23850448855,33773.645717143765,32482.256310053977,34921.64565132037,0.0
24874.881891870627,29232.611096156408,65028.597730811634,30885.896367577625,37736.60168039633,33605.06899065025,32316.351157630746,34744.353464793385,0.0
24658.82748252312,29005.204399637143,64606.74444572641,30663.46953286082,37620.667853098785,33150.648492462344,32157.633103661512,34563.291274295276,0.0
24482.266977950294,28743.119743352065,64136.42843109186,30449.889046898836,37357.4651145504,32765.823971416114,31960.58788450198,34344.239555363034,0.0
24383.125238323206,28565.75270459156,63705.29577795815,30275.61437909882,36991.242150209946,32701.84940724634,31723.695730116535,34096.21581404514,0.0
24285.69255365967,28468.128728627682,63334.20222407222,30110.868362704085,36701.17053689755,32760.71732222813,31494.1404006814,33861.30383692217,0.0
24106.24667061974,28328.213844579583,62949.181086747885,29908.44725630932,36554.00357821914,32569.254430985697,31304.39658751207,33658.06274561968,0.0
23867.87301177879,28076.994044015384,62482.880158365675,29668.00849316794,36414.25125372052,32094.491823008302,31127.988323273705,33456.56643420318,0.0
23670.192142289536,27794.41111325889,61969.97525737998,29437.747191456634,36130.98548664848,31690.194365410505,30916.442811881327,33220.477730496415,0.0
23553.48052213945,27600.65188043074,61501.734629868,29248.771434970346,35748.033317428555,31607.984607857747,30666.74341228722,32958.37030965637,0.0
23443.681043294673,27489.42303536655,61099.136209987046,29071.675734976325,35441.499224553525,31648.693312174226,30423.934940135223,32710.559880947403,0.0
23255.382300143905,27337.18033016772,60684.54000707909,28857.16633784367,35275.260700941064,31438.4453802604,30218.304445278776,32492.505932189175,0.0
23010.128220926348,27075.404666900624,60189.77461160202,28603.920589498666,35116.34726295313,30946.748389437576,30024.792698712354,32274.19050367122,0.0
22806.172561220177,26783.128460313466,59649.903223226436,28359.86837342277,34816.81321650903,30528.411926695397,29797.1909490421,32020.525223954184,0.0
22681.405864405104,26577.645550474565,59153.44773633868,28154.514544318154,34418.09147441064,30432.99020039024,29532.024212368568,31739.333450281163,0.0
22561.938967081853,26452.935358827366,58719.7396548623,27958.320530132096,34093.74901112262,30461.31849769543,29274.17918031428,31471.32920680645,0.0
22364.191396165505,26286.972448648317,58272.318330726586,27723.426077692115,33908.09303345419,30239.37202154802,29054.155234022128,31233.887286928053,0.0
22108.211846331265,26008.595025516006,57742.71399736529,27448.521933204163,33727.337565490816,29731.061579708392,28844.229991503773,30996.34226251505,0.0
21889.671345583913,25694.214821087146,57165.156056484804,27181.66664268644,33402.14003450286,29286.71126202009,28595.559182112043,30721.694862508248,0.0
21747.213349878937,25464.24889653513,56629.81411418744,26954.31161062623,32975.839413942595,29160.652402724016,28305.773155611154,30418.14008013867,0.0
21609.835318110272,25318.9240765242,56158.95869165712,26739.5380226818,32626.55846539442,29163.842725609335,28023.627255785268,30129.19040476987,0.0
21396.62043987459,25140.33519523602,55679.364666481226,26492.296212173347,32422.963046456585,28928.094063238903,27784.661374161045,29876.12245775302,0.0
21128.781336801596,24856.095664469656,55124.896884957314,26212.17217663402,32232.04766063645,28413.287039744017,27564.168274682594,29629.812470058587,0.0
20901.60724305675,24537.02426127664,54528.968530310776,25944.22324933179,31899.98343671804,27960.17453264387,27310.96159278644,29349.877096052678,0.0
20753.54179084322,24299.864570446356,53978.61825877588,25715.69532074847,31464.891258841584,27819.80817501583,27017.711107716725,29039.703196445676,0.0
20612.656484402294,24145.969294384235,53491.740429221005,25496.018334817803,31103.818891950767,27809.55945129584,26729.668990685757,28740.143774790256,0.0
20394.492085655358,23958.80573933277,52989.84225836504,25236.4679156103,30887.252699658344,27566.919433222633,26480.371372201094,28471.321149402625,0.0
20117.54858940899,23664.495945550127,52406.03885093549,24936.49824671946,30683.889042309056,27047.653671443426,26245.284160254967,28204.985885500995,0.0
19878.912506020555,23331.796156894954,51781.33290663355,24647.59919637506,30339.72468539466,26582.747109605883,25976.835277093272,27904.913550710357,0.0
19720.68328811619,23079.080531093183,51210.24316802077,24404.362070561274,29891.032924641386,26421.474685847388,25671.829922995832,27579.20342630198,0.0
19572.33074396739,22914.453265708005,50708.29680750477,24177.147962268376,29514.822067173438,26393.523476763778,25376.098585646367,27270.14740591729,0.0
19347.269656293345,22726.17223175301,50188.894645677574,23912.309607273015,29284.2808169676,26147.92954275681,25119.63868987048,26995.34942985181,0.0
19059.630245843422,22434.308429607023,49581.306874856906,23604.534763198506,29068.73730893934,25633.73813039658,24873.214491098763,26722.36892253268,0.0
18804.814300231177,22096.067503630173,48929.43201284694,23305.57602238848,28711.28340873451,25165.1875954094,24588.25515079456,26413.00372471099,0.0
18629.354821071232,21826.498547077095,48332.74510546162,23054.02623701594,28246.383258493115,24985.971553987718,24265.462045225362,26076.770890966607,0.0
18468.6568937537,21640.17906230394,47808.56856531874,22821.48218021656,27852.33500565075,24934.208541565928,23954.219734309496,25757.14541575074,0.0
18238.40093509417,21433.342325931517,47269.56503242038,22551.184800787316,27605.575308599957,24669.36021189615,23685.015461341773,25471.26406384419,0.0
17952.52886018871,21130.97474853754,46646.4145132715,22235.864346195147,27379.823953761563,24145.125610983247,23429.37411024041,25187.435894073995,0.0
17704.261789637567,20789.96242434914,45985.252085182394,21927.92969564629,27019.515992063592,23672.85906157979,23139.472013785606,24868.544334867416,0.0
17533.809831848732,20518.809315212442,45382.32224555269,21665.359715175367,26553.271758880142,23488.367605510277,22812.65688498341,24522.0794448118,0.0
17370.16192780503,20326.091150229546,44847.633678092745,21418.839912243777,26152.155634404076,23425.65405085061,22493.869013447806,24189.281177554254,0.0
17130.053086597847,20110.95987124241,44291.69907008784,21134.992362660858,25893.699084152806,23149.704221982905,22215.482008665174,23890.266980874785,0.0
16833.577368096066,19805.077492978842,43650.066740673545,20811.43266807461,25658.536706998588,22621.247422879584,21954.961747533387,23598.36863766572,0.0
16576.257354938924,19464.12592364475,42972.53098126291,20500.023279056557,25293.144815396965,22149.53763121545,21665.056540443555,23276.054786635796,0.0
16396.668793281013,19189.813086080674,42354.41990100454,20234.2277507102,24822.506724003037,21963.38158157953,21337.805678232115,22926.16485803519,0.0
16223.77100372859,18988.435509779254,41804.38313771902,19982.310648917344,24415.086754544704,21894.56836826221,21014.22523285439,22587.52246795926,0.0
15975.468650075363,18761.27778422411,41232.887223849604,19690.991640653367,24148.056911670687,21609.52249748624,20726.4970732676,22280.89576917677,0.0
15672.36892556643,18441.681113964434,40576.573211198775,19358.98351800136,23902.364315015868,21068.922437974197,20453.68743546571,21980.806418894863,0.0
15411.512238229996,18087.664503711003,39888.15579212576,19040.716495898858,23526.20261969408,20582.976002265586,20151.35525709982,21651.074275644827,0.0
15232.898346098633,17805.203271691375,39265.07472892377,18771.68459107681,23047.23364460453,20386.02222439715,19814.504927400198,21295.804348500988,0.0
15063.03841425841,17602.282828098996,38713.147742197674,18518.582948913645,22634.453382730688,20313.997191355887,19484.823440890297,20953.23253446857,0.0
14814.57824492433,17376.133363565044,38136.78939081294,18224.600704337725,22361.903320050937,20028.662551161873,19192.54464032841,20641.532442816813,0.0
14505.484120905478,17055.925807789456,37470.23288279205,17887.477843270226,22108.321506699376,19483.494655923147,18915.355352462506,20334.32439253873,0.0
14235.471522363503,16701.78931872703,36770.41028340099,17564.436250830906,21725.06999838979,18990.510049937973,18610.18369386158,19998.40962984047,0.0
14049.238849833655,16423.631764781134,36140.10520244248,17293.740324734335,21243.690028608202,18791.611092983898,18273.267728628554,19640.403687063175,0.0
13875.584481833035,16227.885368496965,35586.050239709424,17042.095187703322,20832.618683064637,18724.614618756324,17945.292523772954,19297.5869574552,0.0
13626.255674876089,16006.761780717437,35010.01444156241,16751.158869157924,20563.194249565546,18446.370859357885,17655.403730773025,18986.62036371264,0.0
13315.97718939375,15685.645950064318,34341.67273600048,16415.477127381826,20310.580267133144,17904.334855451554,17379.391844625505,18679.282588499293,0.0
13041.860869479158,15323.767127467669,33634.28877678535,16088.544369025602,19922.68543131715,17407.5459507728,17070.797937797408,18339.624564014688,0.0
12851.442521621806,15035.145413942628,32993.74465486531,15810.247437370002,19433.065250106945,17200.874619557042,16726.689133421707,17975.355368132183,0.0
12679.288608135514,14832.848091494727,32434.417421432103,15553.674609971225,19015.8492491448,17127.84977559606,16393.306471074826,17628.53328519755,0.0
12437.66432414849,14611.03547922417,31860.501452040262,15262.969928679127,18743.715618806105,16846.47710605762,16101.753018523375,17316.961366696472,0.0
12136.58980456131,14292.612657201966,31197.981452582426,14929.812025866733,18490.34554078871,16301.758739675766,15825.049303120955,17009.609920440824,0.0
11869.763256461376,13935.419527891208,30497.22071527859,14605.497803026554,18104.665697241806,15802.927951097174,15515.923951037712,16669.726593021463,0.0
11684.092639506904,13653.07992926236,29863.58129527721,14329.944562059916,17621.266495186424,15597.620970696333,15173.484026777161,16306.729378336244,0.0
11513.053396264399,13455.557598541129,29309.270684541043,14075.15634267861,17211.415914458437,15529.022757463927,14843.955111835427,15962.509974066334,0.0
11266.629766388625,13231.486328059887,28733.912570217733,13782.256790283043,16942.587209195124,15249.321546807718,14554.95797004482,15651.619767180076,0.0
10955.779671258957,12902.238787499164,28062.717889530162,13442.627488946095,16686.667012618873,14698.938523331339,14277.463109870434,15341.526876576543,0.0
10679.41097218305,12531.348174163473,27351.42719675139,13111.68302471628,16295.973032364154,14190.341544704823,13965.872825987764,14998.020825724463,0.0
10487.246941544687,12238.548808267205,26709.545680395775,12831.817021184663,15807.87156904618,13977.665086044697,13620.060531474697,14632.225556936219,0.0
10312.025637715213,12035.972416928262,26150.09013077727,12574.619330190642,15394.050071083077,13907.728520972361,13286.180362911713,14286.294652186574,0.0
10065.567183736355,11814.41011844032,25575.830896402633,12283.19926202771,15124.661549248127,13634.115780958884,12996.19151176259,13977.974666465583,0.0
9761.247084307592,11496.409913748083,24914.79808290498,11951.130864816838,14874.736402653105,13096.029917250831,12725.981702204828,13677.320810003099,0.0
9495.077135528138,11140.96946138873,24219.35996349076,11631.233899781775,14495.032662629803,12601.648767040391,12427.937393278513,13346.632207741715,0.0
9312.07513609123,10861.394026932561,23593.706979569997,11361.918223871791,14018.874891049025,12402.096749802207,12095.822619337536,12991.625475342267,0.0
9142.624600063624,10666.28571328,23047.583607650446,11112.441548453104,13613.942704760953,12342.189920375062,11770.842556897176,12651.477302800104,0.0
8896.434481227641,10444.256270673484,22480.153384805977,10823.548047837336,13345.887249596237,12070.497937165008,11481.407287113896,12342.224930894929,0.0
8586.205308863564,10118.578389492699,21817.61137682464,10488.374020959578,13089.301404510898,11523.780529054673,11203.720535217715,12034.9959302669,0.0
8311.410214680327,9753.863643074732,21115.676025232897,10162.944620220953,12700.436271149098,11016.128442112305,10895.264605669856,11696.41729437422,0.0
8120.908457873444,9468.170102090671,20483.2181343685,9888.369963925154,12216.76142340891,10805.692406034097,10553.406278826236,11334.386105392827,0.0
7946.9718520696215,9271.145607462238,19933.582168667992,9635.189099653198,11807.001611656622,10739.65853782328,10220.198441341863,10988.159966501114,0.0
7701.551517441852,9052.52556047681,19370.268036944053,9346.817782661514,11539.586412681103,10467.992001882383,9927.444461289972,10676.982461957412,0.0
7398.299304751103,8735.799409767447,18721.481803325158,9017.526942600394,11291.139538489291,9928.178730135456,9655.008921412316,10375.255011595706,0.0
7134.616565118445,8382.676943277638,18039.896839952988,8700.83291959298,10915.46682838973,9432.722168220209,9359.157286474976,10048.133941580383,0.0
6956.870244926802,8108.219169450673,17429.708994674715,8435.816676222703,10446.21716577916,9238.159207844647,9033.202465935012,9700.22613931105,0.0
6793.647733301207,7918.916914539988,16898.90596116436,8191.194263458623,10047.98573818122,9187.903623718568,8713.952377182279,9366.754564731546,0.0
6551.659513923724,7700.311550694567,16345.301835442944,7906.64321062629,9785.08737160038,8924.210046062308,8427.697491160932,9061.795198332491,0.0
6244.870761191731,7377.133770377948,15697.871477710747,7576.679605494756,9536.053162363312,8382.086062204526,8154.965439521644,8760.117973332233,0.0
5978.270193255168,7019.392018817175,15017.913292854868,7261.164997961002,9162.268380844867,7882.049204067409,7859.6089143071085,8434.323298169253,0.0
5803.633605354962,6747.839862524806,14416.153073726424,7002.6789533645915,8700.732308851955,7689.294818573552,7539.729095400047,8093.512192882667,0.0
5648.911789368317,6568.129516546814,13900.318987180555,6767.665508661853,8313.627946943854,7649.043684684737,7230.834305747796,7771.027674568772,0.0
5418.42523068909,6362.969516628804,13365.42222858546,6493.570851246115,8063.148369810017,7400.703091646923,6956.776155203316,7478.352291218201,0.0
5121.82339672791,6051.903371125716,12735.532330003529,6172.445740448271,7824.600067341445,6872.228115536512,6694.196300753631,7186.914203947542,0.0
4858.838191274221,5698.332502780759,12066.147180170461,5860.34096631803,7454.32755001371,6376.338813462243,6401.72054644188,6864.7412850030305,0.0
4682.742453999934,5424.115187226378,11469.328156839256,5601.081571122083,6990.689318660802,6180.448209729195,6078.4991781616945,6521.907825471738,0.0
4529.232377687501,5244.066971504471,10961.212979084063,5367.998868813202,6604.2450023953315,6140.71033826161,5768.260616568541,6198.90534514489,0.0
4305.757162885896,5045.5784478354935,10440.885541150166,5101.781613887248,6361.420276793455,5900.580284329765,5499.783691721683,5911.216418867546,0.0
4017.6486059810386,4744.4856494800815,9828.528151635706,4791.260874497599,6134.141998757845,5381.7440138024795,5247.010852203525,5628.078838647818,0.0
3760.1185744104914,4400.128824294796,9175.202440364024,4489.058521644759,5774.582851360974,4892.126837587365,4964.471213645732,5314.665370133668,0.0
3585.1425671598454,4133.2952577147125,8591.779424222666,4237.874876129403,5319.496443796143,4700.437833302815,4649.431464255831,4979.804850456207,0.0
3429.039426868191,3958.6050105416084,8094.952678711672,4010.42538138932,4939.81508443741,4665.212723710295,4345.227547477972,4663.726349388077,0.0
3202.116509093332,3764.711847325178,7586.079742441495,3748.299986259129,4704.477165152904,4431.099225740113,4082.531685955554,4383.700527701373,0.0
2914.8276483204254,3470.8772047103284,6989.25358389889,3444.139433609847,4488.787540916281,3920.97195212803,3838.813648360714,4112.05052147258,0.0
2667.0333380772577,3139.7000634974233,6358.936115679412,3154.6726277937764,4146.6168308751685,3444.685702505622,3570.3748171637026,3815.396245849046,0.0
2511.0042376422193,2891.716975951396,5805.9028918002305,2922.6881117240173,3712.8854016683617,3271.7932408453894,3272.6279317375015,3500.4982816553215,0.0
2377.0113379828335,2735.907861099433,5340.998015515385,2715.611509026561,3352.337517138254,3256.4911232007503,2983.7678296427994,3201.967937555115,0.0
2166.7661772001675,2553.5801647375665,4857.10859186436,2468.0615685902117,3127.1253513884562,3035.38684477711,2729.003242141132,2931.5019914431723,0.0
1886.3323906275104,2261.7031934628285,4274.338969802684,2168.882759211619,2911.876722127164,2527.4639971351007,2484.7086028773333,2660.659709203646,0.0
1637.4365782003208,1926.2923098693245,3649.818186839611,1875.831310374676,2566.108770675075,2046.0879828583866,2211.3775527737935,2360.088297232002,0.0
1477.035218271762,1672.251354653253,3099.8478550349564,1636.1950129363029,2130.3222378881605,1867.596647943739,1909.8902599576718,2041.6631655122555,0.0
1339.02403572866,1511.3689213248445,2639.961297831985,1422.2267911313406,1771.1731699992874,1851.0551884083843,1621.4306547273952,1743.2566420515739,0.0
1128.4499179760041,1328.405970132836,2167.24029035115,1172.8639412263967,1552.394487757674,1635.2170043096316,1373.0008313799256,1478.7962608246055,0.0
856.4859228923893,1045.8082108135798,1606.3702311383795,882.1014822825189,1352.647810159284,1141.1392261303884,1143.9990942187471,1222.9442621342944,0.0
625.7882479487433,730.5463546419883,1013.8720103125107,608.5953161725222,1031.2081738792451,681.9229750985272,894.0822182178398,945.4252373966499,0.0
485.5293103267976,499.789917738087,497.3410696241667,391.98153955858345,619.8547977531235,527.8748914265327,615.9460068156512,649.8995777126744,0.0
362.52368030308037,358.02892660998765,65.11282588538316,197.0795914137206,278.24301541849894,531.9809765621435,344.5180835575719,368.23890577713786,0.0
161.35526340157003,188.5544304472,-386.3310266880569,-38.429838222406154,70.44856039238371,330.9042214475757,107.53786491411589,115.63304504181946,0.0
-106.95437816177855,-87.31622417246433,-932.3596132721476,-321.33625037059977,-123.66697611745312,-155.97712437242734,-114.55781549022846,-132.14643754222328,0.0
-338.6238363764792,-401.6798938749082,-1514.6985391073006,-592.6300073113356,-442.71806636936435,-614.2656645852002,-360.85208967000074,-404.80835804689536,0.0
-477.190552726262,-630.1405728103595,-2018.0401443169021,-806.5277938203419,-849.0075408868795,-766.1774190073818,-633.6493480370151,-694.0981407242241,0.0
-589.8694708577128,-762.6196859387492,-2427.8520284829992,-992.0817646584635,-1178.9974601532083,-753.4539397691074,-894.9586462131227,-964.4229816970702,0.0
-774.6018611103376,-918.3000340707949,-2849.3939838252813,-1211.695256120908,-1369.8586069781422,-942.4285110014775,-1119.1624583063751,-1201.934911564986,0.0
-1027.682669989183,-1181.6734611552392,-3364.774238643953,-1476.9748258352956,-1545.408082217124,-1419.7726075456642,-1329.1960813596402,-1434.50060584967,0.0
-1252.067243378846,-1488.6251212933284,-3923.327568945761,-1734.9997050346258,-1849.3113000186352,-1873.621685274646,-1567.0963213587388,-1695.8684332195066,0.0
-1393.397354966046,-1714.2471736554926,-4413.174437692996,-1942.6330396310457,-2246.8032289680696,-2022.7809278109962,-1836.0615204144758,-1979.6382157985968,0.0
-1514.2829750875828,-1843.9578608023025,-4815.223605511903,-2125.6824484741173,-2571.6251260999366,-2003.1173597746877,-2094.502444121953,-2247.1789520108096,0.0
-1704.5527270553691,-1991.965416703366,-5225.95228858784,-2341.040793455425,-2755.3235788491875,-2178.627870385089,-2311.134112748218,-2479.3558368920435,0.0
-1953.7721169262857,-2240.210104129818,-5721.055096913818,-2596.509512399784,-2917.0455950282917,-2637.3329161543875,-2505.825175101254,-2700.4675361673485,0.0
-2162.9183988876907,-2526.069612038768,-6248.953025420642,-2838.5536332741135,-3199.582906733851,-3069.478771778668,-2722.680699320819,-2944.086514805062,0.0
-2281.5992943902297,-2730.2031395076183,-6701.958635172006,-3026.8634824142764,-3572.4721813376445,-3196.3744291149014,-2970.5680161691566,-3207.1007288551095,0.0
-2379.784184611602,-2843.9648917152176,-7067.904651719017,-3191.860999613379,-3875.482944588849,-3156.9920028329166,-3212.3526273945245,-3455.3577463166903,0.0
-2554.025451042241,-2984.4083453503195,-7450.18429399563,-3394.716966323401,-4044.025302185467,-3318.830471760849,-3417.8770853088417,-3672.7924744986612,0.0
-2796.119538171488,-3232.14407849086,-7927.187672309373,-3644.4320188767147,-4197.196193525538,-3771.134910726993,-3605.1677924258115,-3883.53229191565,0.0
-3002.571586883801,-3519.0296861801344,-8442.7207140639,-3883.2273225002023,-4473.232262433639,-4199.355560747605,-3813.8494424317937,-4117.236405615951,0.0
-3116.5049300133783,-3719.950457852143,-8881.787438395178,-4065.2109894768478,-4837.029091516574,-4318.299016927142,-4050.208236830907,-4367.476762577515,0.0
-3205.656893832617,-3824.8007914881323,-9228.185168372791,-4219.5497638071465,-5128.06473362018,-4266.306294220976,-4279.586008759208,-4601.077340695931,0.0
-3367.369954770336,-3952.275868791025,-9583.93122734013,-4408.695740884624,-5283.10143465957,-4414.643607436479,-4474.161747330139,-4804.0689556699335,0.0
-3595.2381674132507,-4185.571357599084,-10028.75948788451,-4643.272055017755,-5422.367067416339,-4856.060619235831,-4651.6873048568705,-5001.900055662473,0.0
-3789.3471303573633,-4459.349954415027,-10511.68991090369,-4868.84563123103,-5686.479291777594,-5277.410367660799,-4852.581162814847,-5226.529109642617,0.0
-3895.21317547168,-4648.7289916685,-10922.14399246067,-5042.097859300846,-6041.101736570735,-5390.395028489712,-5083.578143886925,-5472.420865084795,0.0
-3979.128336079836,-4741.244890237559,-11243.944186123557,-5190.430081657957,-6322.147609819601,-5327.6050246889545,-5306.688124786786,-5703.039476972284,0.0
-4135.549872991718,-4854.40996297584,-11577.034889911105,-5371.9683096250465,-6461.580124940469,-5458.294132610465,-5489.792123549862,-5899.375323957939,0.0
-4356.1044198681875,-5072.29535348191,-11999.39181898497,-5594.269658778631,-6578.013228311336,-5878.251740252953,-5649.680671947693,-6083.894680036973,0.0
-4540.3327689759435,-5331.255098943659,-12459.194799300221,-5802.950942437494,-6816.0752243842535,-6278.719927808812,-5829.720781640388,-6289.242250569709,0.0
-4634.310833239037,-5507.731947580185,-12844.859080022037,-5956.806925197016,-7148.205416816797,-6373.722288755978,-6040.819203828646,-6513.281843002042,0.0
-4705.493645139449,-5589.290036294485,-13138.575504356506,-6085.518520493843,-7413.5252550677105,-6295.693075634518,-6247.6328518569535,-6722.956436643305,0.0
-4851.364492170279,-5693.95764845952,-13441.773222160007,-6250.4678920788665,-7543.753000913833,-6414.885008339731,-6419.528395944323,-6901.947161599701,0.0
-5067.59432116795,-5907.334550885023,-13837.927230751873,-6463.225023831394,-7656.921793074974,-6829.738659302281,-6573.873153350708,-7074.449153013599,0.0
-5252.6073042854,-6163.565549308402,-14277.34622664984,-6668.812436533411,-7893.446555285942,-7228.9408956076995,-6750.844926141746,-7271.361138148879,0.0
-5344.871007233675,-6332.455861791215,-14643.737491577998,-6819.3403781343,-8217.57185859598,-7317.516200441452,-6954.967807838455,-7485.436832884463,0.0
-5406.7199975433805,-6398.793180193093,-14914.948858132393,-6939.485080332423,-8465.273685988404,-7223.434927276208,-7147.965984777458,-7681.013002435507,0.0
-5537.829471483443,-6485.194600135928,-15192.561347432867,-7091.439681824408,-8573.046112686643,-7322.529435378246,-7301.860285239632,-7843.970869269984,0.0
-5736.892759238168,-6681.451859672844,-15560.219608440302,-7288.242390559343,-8663.113075729085,-7718.931235037514,-7436.527834710761,-8000.15481011134,0.0
-5903.116271182635,-6921.58794713627,-15967.847448913008,-7475.449721160669,-8876.543170897545,-8099.945612491819,-7593.060339801274,-8179.938163960957,0.0
-5977.554983473874,-7075.705141075177,-16301.500148054403,-7607.923782410439,-9179.143677858654,-8168.281103604449,-7778.924279014391,-8377.272877095405,0.0
-6025.385201113983,-7130.014713748696,-16541.22154748503,-7712.529346109424,-9408.432819925209,-8054.290314758564,-7958.277111262812,-8558.173753721785,0.0
-6146.42266208865,-7207.47525796776,-16789.46342337337,-7851.0617360997385,-9501.200314735395,-8139.317700420346,-8102.161894192688,-8708.643029335559,0.0
-6340.0822717052415,-7398.303911022887,-17133.73983920681,-8038.089610448984,-9581.606772382689,-8531.61556545955,-8230.002261086142,-8856.003811024142,0.0
-6506.100728400523,-7635.837580853773,-17526.97478311821,-8221.362978791272,-9791.592294978704,-8915.47843944146,-8383.232046332212,-9031.927205231115,0.0
-6581.248608773145,-7786.386079900446,-17850.02259086567,-8352.457241347867,-10092.52979696472,-8984.088240393425,-8566.508014150299,-9226.849201574043,0.0
-6624.55615372354,-7832.585553966892,-18073.683001825353,-8451.318908868601,-10315.58012973997,-8861.02200414256,-8739.485431505316,-9400.593344902256,0.0
-6733.858614382901,-7897.260408412166,-18295.694966266128,-8575.957489659082,-10394.165268557697,-8928.874286826273,-8870.578703874191,-9535.398725534147,0.0
-6911.840727586844,-8073.440520842976,-18606.078488103813,-8743.424491888996,-10453.948564488497,-9302.134431591783,-8979.922745607171,-9659.862414688047,0.0
-7064.039678385068,-8298.248457156596,-18964.983748318118,-8907.933205855157,-10642.691077156633,-9670.860877080486,-9113.31603838469,-9811.604145161455,0.0
-7130.670711840745,-8439.171608778996,-19259.01527233438,-9025.300089117165,-10926.883133313586,-9728.526163658333,-9280.063280149554,-9986.807862096557,0.0
-7169.166548805549,-8476.247776855636,-19458.98160062128,-9114.484671905802,-11137.786223452098,-9594.399599921353,-9440.760240928046,-10146.34032524279,0.0
-7273.738258694027,-8529.8229450406,-19659.14896265183,-9230.682835665037,-11205.889886708246,-9649.017464108903,-9562.161186579408,-10270.281463668975,0.0
-7444.668710032022,-8692.724843970826,-19946.145089546837,-9388.902367731791,-11253.724833872378,-10008.690972051289,-9662.464054381424,-10384.823682000022,0.0
-7585.789036098589,-8902.137202590402,-20277.646991598238,-9541.112197218177,-11426.15375792142,-10363.792670096658,-9785.002292839137,-10525.163755909025,0.0
-7636.2462003525025,-9025.186231161164,-20539.277477941327,-9641.409628274298,-11688.365265083581,-10404.837986666591,-9936.5828417295,-10685.444944451792,0.0
-7655.232500357964,-9042.882953066652,-20703.716409469245,-9710.157995457685,-11873.673085368368,-10249.574060465395,-10077.677568484774,-10826.721557330806,0.0
-7741.476231420806,-9078.556107093596,-20869.81614199935,-9806.516079414918,-11916.837148870314,-10281.76717030225,-10178.162588773423,-10931.679102363105,0.0
-7898.901166374382,-9228.3338417638,-21128.642781504786,-9948.536200365621,-11943.944790259064,-10623.000552130554,-10260.3491165469,-11029.327889267539,0.0
-8031.681997182185,-9430.668494665868,-21438.92310467384,-10088.807430846267,-12101.976960451328,-10966.30929480503,-10370.067378265294,-11156.509125554905,0.0
-8077.716111801564,-9551.353968121593,-21683.91657349312,-10181.227554581941,-12357.441428481103,-11001.079792988643,-10514.6648787173,-11308.194664852195,0.0
-8094.51148153866,-9567.859585384931,-21832.34774097163,-10245.412810965043,-12541.619804612892,-10841.372153420934,-10652.718739541067,-11444.285765662775,0.0
-8176.388681156055,-9597.437144206218,-21977.76789853252,-10336.941173312007,-12581.259791011858,-10865.676491836428,-10748.115810454112,-11542.295315378584,0.0
-8321.984449350077,-9731.097870803684,-22207.001987455093,-10469.087797198965,-12594.10056865353,-11192.143724548418,-10816.493426974585,-11625.590488950296,0.0
-8436.762520519878,-9910.473270291266,-22481.6505211005,-10594.728715818927,-12728.43248299769,-11516.887010663726,-10904.7002109716,-11732.308228758464,0.0
-8466.339643980533,-10011.081208854235,-22693.856532475107,-10673.279661683064,-12960.633079733427,-11535.731205144923,-11028.827202786684,-11864.830803617939,0.0
-8472.850042079368,-10014.972170759145,-22816.76272351521,-10727.148025392162,-13127.950354693323,-11363.869288990396,-11153.127327131697,-11987.297921357504,0.0
-8549.095453369833,-10035.980914743755,-22940.475316759912,-10809.039566247275,-13154.492617317017,-11375.978344564614,-11239.246741879466,-12075.000998828384,0.0
-8691.893667618957,-10162.37391960569,-23148.541351423115,-10929.708684357673,-13154.550009474064,-11689.620741272807,-11299.023927967293,-12147.939868613481,0.0
-8805.895984632123,-10336.091147695073,-23402.77885148149,-11042.706446077564,-13276.409063132036,-12003.414752820781,-11377.668982997762,-12242.5669702321,0.0
-8833.297107360162,-10430.469785494026,-23594.311537536145,-11107.64396145548,-13496.125328358134,-12011.619110248053,-11489.49422196886,-12360.002130275967,0.0
-8832.88053897645,-10424.590385798945,-23694.581550323895,-11147.04260253678,-13649.966620981151,-11825.925847118066,-11598.637144976523,-12465.241186011106,0.0
-8899.53173073532,-10434.698669956097,-23795.622314863176,-11217.093125992498,-13663.29806766663,-11823.481707149755,-11671.197442320614,-12538.057642321502,0.0
-9033.517902600859,-10552.869076586618,-23982.636303888707,-11330.754503741058,-13650.893108963077,-12127.058158829435,-11721.997057278937,-12600.849466383568,0.0
-9137.894921162624,-10719.46086389806,-24213.927532376398,-11436.947295653372,-13758.363040374184,-12434.478297505153,-11792.276063610436,-12686.048455945995,0.0
-9152.19748792283,-10804.379765701955,-24377.240696723675,-11489.9066975967,-13961.097787532652,-12434.49233517115,-11891.747678238444,-12790.470617240806,0.0
-9136.998096608071,-10786.266912087334,-24446.28785465373,-11513.01000368313,-14098.311929185133,-12235.187862146093,-11985.607672869955,-12880.126686463145,0.0
-9190.15805561985,-10781.765433473394,-24517.34177282555,-11566.09035350338,-14096.372548836476,-12214.029099614525,-12043.039047314349,-12937.441876915196,0.0
-9312.433894037269,-10883.09426446315,-24677.216294046408,-11664.121748361831,-14068.45499894594,-12497.30431621287,-12079.989137955088,-12985.752117947308,0.0
-9406.23042449944,-11032.662073129393,-24883.66987066473,-11757.149345211468,-14160.838515826385,-12787.553936429533,-12138.168023591057,-13058.371882012312,0.0
-9409.755576673335,-11102.62387104617,-25022.921029780184,-11799.488138976827,-14351.090822045877,-12775.016690762759,-12227.459124125007,-13152.431780096313,0.0
-9381.448598552803,-11070.837547328727,-25066.564571596355,-11812.594156583418,-14477.143198926417,-12564.501887235583,-12311.331148844953,-13231.715731489387,0.0
-9419.660673526532,-11052.972953822946,-25110.605117277355,-11855.057121078162,-14462.4366865796,-12531.147536990313,-12357.227143099026,-13276.883660316094,0.0
-9529.644110887555,-11143.801146965161,-25245.137375182563,-11943.267146544653,-14421.072519895875,-12804.295533799439,-12382.355250069846,-13312.998338676594,0.0
-9616.674798462353,-11287.618976523017,-25430.82612148196,-12027.993106716047,-14502.001617089216,-13089.157799815355,-12430.286200129609,-13374.979072455828,0.0
-9616.65145693585,-11353.266572121809,-25552.582188225948,-12061.674489930125,-14682.119497714022,-13072.266343359734,-12510.084087793251,-13458.569812215617,0.0
-9584.537897368959,-11313.864830320954,-25578.74293247857,-12064.491520021616,-14796.49143193748,-12852.67043051347,-12583.374057414974,-13525.964865931968,0.0
-9617.25768674036,-11283.735935835468,-25603.0992552314,-12095.698808297839,-14766.640305509252,-12803.819101394494,-12616.661341295394,-13557.205573329382,0.0
-9720.176478512301,-11359.87489411095,-25715.474351867266,-12172.931315712382,-14707.046941843519,-13058.013750287584,-12627.461315193472,-13576.89737622774,0.0
-9799.2501111243,-11490.142654627798,-25877.789465524693,-12247.694138316632,-14769.423241880837,-13325.024276840315,-12661.048472273545,-13620.897304013553,0.0
-9790.307443336567,-11544.940195598998,-25975.224040058958,-12271.188083952109,-14933.095081743773,-13293.038808072988,-12727.888539203866,-13687.173211899084,0.0
-9747.907256825774,-11496.276363568075,-25975.312642651763,-12261.53246381841,-15033.447590742779,-13059.675756892826,-12789.751675511749,-13739.690268319067,0.0
-9770.133325323257,-11457.641931594328,-25972.691979463296,-12278.305335727155,-14991.618153574882,-12998.47076406495,-12813.04139901467,-13759.234194213022,0.0
-9864.165178296998,-11526.455088353514,-26059.088652309463,-12341.129664067374,-14921.29455447905,-13243.796350147739,-12814.498852651128,-13769.78967772143,0.0
-9935.492223937514,-11649.913547260758,-26196.89500414399,-12402.119696211008,-14972.642503507286,-13504.603299026798,-12837.504114984495,-13805.291675483028,0.0
-9917.289485239873,-11695.622657902637,-26270.414854074348,-12411.823975601696,-15123.567081851052,-13463.925036345308,-12891.167097768937,-13861.67640054914,0.0
-9863.650989980755,-11634.175943744242,-26247.026837446556,-12389.23272635899,-15209.224380381429,-13216.089651899369,-12938.36963703295,-13902.417376266445,0.0
-9875.905235169093,-11581.88885307816,-26222.440839448718,-12396.513732004742,-15152.109796695737,-13138.364091294217,-12948.673193466835,-13909.950671937746,0.0
-9962.601166774857,-11639.129288009699,-26288.137485344007,-12453.63966608461,-15066.930385061883,-13370.91716875213,-12940.404394300875,-13909.846961309277,0.0
-10026.037775211918,-11752.621636987515,-26404.35124527232,-12509.283173491694,-15103.687316089368,-13623.564299687227,-12955.235836709599,-13935.481547291922,0.0
-9997.121314562257,-11789.251551596628,-26454.56294600007,-12510.735974646717,-15241.645027302833,-13576.539275427149,-13000.511043922732,-13981.621048937388,0.0
-9931.89692029805,-11720.463591534848,-26407.77182637785,-12477.204356864666,-15318.103256201533,-13322.094820516662,-13039.252470026484,-14012.069599420183,0.0
-9934.542445252848,-11662.754173841242,-26361.924574467957,-12473.197230116815,-15254.376762767162,-13237.166592938185,-13041.14921712748,-14010.147627604256,0.0
-10014.418649724066,-11715.292867940188,-26410.049014484415,-12520.122069542047,-15161.633253367912,-13462.131087808631,-13023.525496582166,-14000.548163758413,0.0
-10073.195155890973,-11823.208932014502,-26511.933084370365,-12566.626784930348,-15188.260737869985,-13706.145412115118,-13027.206639121046,-14014.676821243851,0.0
-10040.966699599827,-11852.096077043794,-26548.04972010953,-12560.117833045255,-15314.238739228429,-13648.072383119505,-13060.283810468842,-14047.417867215976,0.0
-9972.785201182762,-11773.178908232152,-26484.11521521648,-12519.675934985831,-15377.762952960255,-13380.016144164565,-13087.67165325933,-14064.582259814373,0.0
-9971.471993005047,-11704.068068232009,-26417.122751588973,-12507.860371695328,-15300.86934534904,-13280.867185046636,-13079.892267800624,-14050.057800737819,0.0
-10045.836167701129,-11745.881291277226,-26441.828202937282,-12544.106512097158,-15195.77879849613,-13493.747109620921,-13053.530757224782,-14027.865123152727,0.0
-10098.674659839968,-11845.569181658302,-26521.3424384462,-12577.923374452574,-15211.822751580126,-13729.049467005345,-13049.251043013865,-14030.231546437248,0.0
-10060.98756729742,-11868.27294732009,-26538.164371838444,-12558.924276325179,-15328.49637689947,-13663.347360060145,-13075.3970360259,-14052.982179430552,0.0
-9986.74975492129,-11782.085911510809,-26456.1862818494,-12506.84448687646,-15381.645225204413,-13384.651814298433,-13095.188980131523,-14060.39255068658,0.0
-9977.528472125185,-11702.474267848424,-26369.232470022867,-12484.289008488431,-15291.193470273569,-13271.228159274542,-13076.936721196458,-14034.896456750808,0.0
-10041.984118334389,-11731.095138522322,-26371.209408717077,-12511.423720378258,-15169.042799978102,-13469.43949253616,-13037.103785969246,-14001.442001408015,0.0
-10082.539390026242,-11816.165552379874,-26426.25596106196,-12537.646428225376,-15165.977223934275,-13691.671033799572,-13017.728395208283,-13993.198195249093,0.0
-10030.292456522886,-11824.668362001454,-26418.78110365295,-12511.506408033838,-15265.193050759377,-13614.069628307694,-13029.508304799621,-14006.225523653115,0.0
-9941.384674935958,-11726.884955959466,-26314.73760929086,-12452.039465916736,-15306.028977624905,-13324.292738795046,-13038.017186578807,-14005.298712500808,0.0
-9920.13698820709,-11638.478274930018,-26208.132246140012,-12420.985496666635,-15207.358187463673,-13200.50187258446,-13011.058895881664,-13971.921089137797,0.0
-9977.161050041454,-11660.037214776537,-26192.31622875275,-12438.035071383256,-15077.56094518904,-13389.174190806913,-12962.687417936502,-13929.095239602446,0.0
-10015.998021330082,-11740.033530056626,-26232.740739460474,-12454.219543479901,-15066.830162751916,-13603.468072433083,-12934.56562086452,-13910.476958181209,0.0
-9965.979987559582,-11745.39341349938,-26214.01741959302,-12419.514774473932,-15159.283449991655,-13518.729952090122,-12938.264178673615,-13913.76223669363,0.0
-9877.994710707064,-11643.917847523207,-26098.34555725749,-12351.50297399321,-15192.544483007872,-13219.891409985394,-12938.651632908854,-13902.89266662841,0.0
-9851.873524971768,-11548.768650840242,-25975.958139099086,-12310.01880907758,-15082.928930437152,-13084.728308603526,-12902.251734932932,-13857.503225798535,0.0
-9897.721175509756,-11560.576896264583,-25940.174318500907,-12315.013420917892,-14939.268879640953,-13263.034852573577,-12843.194060682588,-13800.707409028319,0.0
-9921.897784338893,-11630.216125092094,-25959.455644573558,-12319.806328738028,-14915.432831323596,-13471.288284564911,-12805.287894467381,-13768.858637208841,0.0
-9857.319268240746,-11626.914786936153,-25921.6086654673,-12276.997501422373,-14998.71523237019,-13384.237217472322,-12802.701840711781,-13763.096838131885,0.0
-9755.65412360413,-11516.895679885842,-25788.063493236703,-12203.114527971595,-15024.599677428921,-13080.929962460748,-12798.497817276639,-13746.975475186026,0.0
-9716.249123983662,-11410.053933419616,-25645.44483916655,-12153.912853433523,-14904.182500375553,-12933.748586979107,-12754.189755600644,-13695.884725162867,0.0
-9753.144758860359,-11409.243061750343,-25588.216822257808,-12149.868795264416,-14746.217276422318,-13096.254119955838,-12684.238940589297,-13631.898253299538,0.0
-9776.886820920716,-11470.307323270732,-25589.736309732787,-12148.350128888682,-14709.342571632482,-13293.021116119613,-12636.99604627605,-13593.71295626325,0.0
-9716.823696676836,-11461.839213899415,-25537.9755712861,-12101.159447620688,-14783.358053900776,-13199.247112514677,-12626.998212819792,-13581.795290837097,0.0
-9618.618891824499,-11346.684498068336,-25391.583315399672,-12021.976450077558,-14803.663744975811,-12889.223183667087,-12615.761984804154,-13558.124342643156,0.0
-9580.210882725994,-11234.359135419156,-25237.29860723661,-11967.527317539061,-14680.670249438586,-12734.278714828552,-12565.995953845886,-13499.643020852967,0.0
-9614.543911094745,-11227.511641008892,-25169.054754867007,-11958.435732205675,-14519.711254011192,-12889.29001541018,-12491.5253498859,-13428.570207444329,0.0
-9629.166728713833,-11280.477985591366,-25156.204268272915,-11948.49117867466,-14474.799034139713,-13078.351875015624,-12436.491779899352,-13380.229756477045,0.0
-9554.709716044,-11262.786797533108,-25085.162334484896,-11888.316980873955,-14535.611710090121,-12975.858626869598,-12414.163295041937,-13353.829934810987,0.0
-9443.486220573162,-11140.207882938535,-24918.543703974374,-11795.67605379064,-14541.738326803437,-12656.52161525583,-12390.012909390642,-13314.413883477559,0.0
-9397.800729611454,-11022.802777438681,-24746.856601271673,-11731.290890361672,-14406.102275456451,-12492.029691756683,-12330.052064049747,-13241.972523973678,0.0
-9429.292978123267,-11011.806158764583,-24664.128634822955,-11715.910407805073,-14233.793379515044,-12637.959937909009,-12247.61182904205,-13159.565105185444,0.0
-9443.452162211674,-11062.167297800539,-24639.71475973166,-11702.432658522042,-14180.517547519483,-12820.948077387766,-12186.50241292555,-13103.638801117637,0.0
-9369.636324608036,-11044.229419564128,-24560.32537950973,-11641.274157562488,-14238.43813840708,-12716.464727544339,-12160.982981205423,-13074.71104492769,0.0
-9256.681921562515,-10920.442960201275,-24385.727446401062,-11548.209371951038,-14244.69198366517,-12395.58429632776,-12135.18804139145,-13035.936805626305,0.0
-9204.869502320189,-10798.095432146758,-24203.804035750825,-11481.753197593203,-14107.704617452244,-12227.29232072141,-12073.083213823278,-12963.84645650077,0.0
-9229.450767556022,-10781.545750963916,-24110.301248373737,-11463.317085997642,-13931.867566154884,-12369.934608652797,-11988.567445206814,-12880.322545004385,0.0
-9238.420401638978,-10828.002360462073,-24075.155711162814,-11445.268655888567,-13873.289220795485,-12551.280466033262,-11924.672577687139,-12820.71765021631,0.0
-9157.424898121126,-10803.262218359343,-23980.640019309827,-11373.834643216594,-13922.060694667485,-12441.10474561002,-11891.226762602053,-12782.414654410928,0.0
-9032.449660472337,-10665.559760316386,-23783.601333012844,-11263.600694977624,-13913.047733482405,-12105.563159122637,-11850.389844088544,-12727.598202886385,0.0
-8967.482090970048,-10525.51727786119,-23575.94106751555,-11179.055345607501,-13755.82582125969,-11917.556362331885,-11770.673896381582,-12637.261374726893,0.0
-8983.900919834117,-10495.152144042659,-23461.127231714454,-11149.801999674457,-13560.841965744765,-12045.316491841388,-11673.04299427493,-12540.19945993715,0.0
-8992.277386068377,-10536.766683135485,-23414.11340281335,-11131.618089162825,-13491.424844011794,-12222.893498765885,-11604.322115166422,-12475.555695653484,0.0
-8915.751963822013,-10515.354350792215,-23316.091906073245,-11066.74513326331,-13539.187895955478,-12116.853225869569,-11572.97652878227,-12438.84967016104,0.0
-8795.139207248003,-10383.40426430879,-23118.144513589006,-10961.857489094262,-13533.591921466044,-11784.177213199935,-11536.030098384923,-12386.875939130854,0.0
-8729.303918341157,-10243.768090768808,-22904.864953757107,-10874.925279178742,-13375.876804667627,-11590.147236983992,-11454.88846943957,-12294.46987040148,0.0
-8737.236239171963,-10203.74086924068,-22775.619205258743,-10834.204956317357,-13170.808908376915,-11702.11851356533,-11346.020702971997,-12186.951983701178,0.0
-8733.089530252857,-10229.50395433973,-22709.696887417016,-10801.21479729572,-13085.293659495148,-11861.185230642528,-11260.644251470907,-12107.408739698507,0.0
-8647.144278508835,-10195.218445735862,-22596.93782705587,-10726.573198671646,-13121.59861843822,-11742.616877300172,-11217.202043986828,-12060.01205746467,0.0
-8523.029643193326,-10057.541744508311,-22390.759906878928,-10619.28664110794,-13114.433785788284,-11405.329753873308,-11176.829418958696,-12005.223443383935,0.0
-8455.958441054874,-9916.21024203506,-22170.814524380654,-10532.205778943107,-12959.860755165868,-11210.893659327576,-11096.247722021297,-11913.68581162752,0.0
-8460.848215382888,-9874.531533026875,-22031.963050486407,-10488.01155494705,-12754.65503855884,-11323.61161864593,-10986.021462444438,-11804.75732703013,0.0
-8451.837917806235,-9897.474758059643,-21953.11541053547,-10447.51034332172,-12662.252261920636,-11482.774735763835,-10895.559327983767,-11719.226567843014,0.0
-8361.507725228617,-9859.812741990254,-21826.650354748603,-10364.61537558927,-12687.465118249724,-11362.057721410929,-10845.121064010304,-11663.346681115252,0.0
-8235.024780173604,-9719.683911270948,-21609.65891179176,-10251.994501653724,-12671.263279308858,-11021.394072356865,-10799.443327242294,-11601.478318097772,0.0
-8167.1684196462575,-9577.569820761379,-21383.433806052748,-10163.390737106485,-12513.88180429121,-10825.100364197948,-10717.35355347288,-11506.066747772642,0.0
-8170.713667511998,-9534.730662863254,-21240.368956056493,-10119.018450363637,-12309.744783854083,-10937.41639203626,-10607.16760889692,-11394.632293631115,0.0
-8158.227518409913,-9553.645633223014,-21156.184433503957,-10076.738306334824,-12217.092584318822,-11094.843318612486,-10514.557667970737,-11305.398362722812,0.0
-8062.864167851842,-9509.66144469352,-21022.563960997028,-9989.595143236924,-12238.518147464232,-10968.626580836362,-10458.826442967333,-11244.0065608947,0.0
-7930.872049695658,-9362.823843679696,-20796.46724957771,-9870.60930573427,-12215.104890412114,-10617.94698830727,-10405.694578104773,-11175.321004303201,0.0
-7857.629618918756,-9214.604517262174,-20558.980342398754,-9774.270106164622,-12047.62339475154,-10409.37087232934,-10315.143035661345,-11072.717742470475,0.0
-7856.51409458164,-9166.923389542806,-20404.50683188437,-9722.65041529251,-11832.701938707296,-10511.74939202481,-10197.22238314577,-10955.365802270593,0.0
-7839.97760877092,-9182.30443144394,-20311.76856536391,-9675.765994905452,-11732.009926217623,-10663.977189530917,-10099.43387764451,-10862.700285646686,0.0
-7740.379723975362,-9135.051722500197,-20172.74281391686,-9586.961150476905,-11749.64347337775,-10535.106755042569,-10041.259912459303,-10799.910607527858,0.0
-7604.5142448238075,-8984.842226343153,-19942.42766854918,-9467.774635410135,-11725.717191894733,-10181.64851914822,-9986.999248565937,-10730.73313929798,0.0
-7530.215225962927,-8834.895194119985,-19701.189137461388,-9371.645295060307,-11560.108227963901,-9971.798883401943,-9895.995524929112,-10628.407725227393,0.0
-7531.7286459468405,-8788.18811344253,-19543.014755600645,-9319.630309905444,-11347.528108571702,-10076.850900355506,-9778.093149233271,-10511.425051955142,0.0
-7517.365938759622,-8803.833961448581,-19443.23647978434,-9268.734641124396,-11244.340828608836,-10231.857650160377,-9677.976429699507,-10415.80665559728,0.0
-7414.603794828661,-8752.106844362443,-19291.630165347247,-9170.85615321382,-11252.093968841811,-10099.735736772594,-9612.845383144971,-10344.672639298951,0.0
-7271.464065728269,-8594.755846020258,-19047.61966230163,-9042.193379093269,-11216.754529733762,-9738.285806445461,-9550.664672177418,-10265.451830869191,0.0
-7190.606756145637,-8439.939357058054,-18797.118002592328,-8941.963329278797,-11044.551471009354,-9521.834026647852,-9455.703935210284,-10156.070332266512,0.0
-7188.440535235638,-8391.402555902238,-18634.24923372016,-8891.152187558937,-10829.41339001569,-9623.691765345997,-9337.105215642812,-10035.312137134479,0.0
-7172.410892555645,-8405.238241100618,-18531.48192464328,-8842.268265692195,-10723.937954332883,-9775.779824921461,-9235.65160595857,-9936.941341957221,0.0
-7068.0864793474975,-8348.636161628161,-18375.767745953406,-8743.011306363422,-10727.40331629759,-9637.053853090625,-9166.280670302109,-9861.976404119932,0.0
-6922.922644775018,-8183.414067555496,-18125.03094162847,-8608.945743186436,-10685.930112529206,-9265.500936161336,-9097.89846680602,-9777.611833642892,0.0
-6841.738087189406,-8021.78425473985,-17866.629284900897,-8502.557739474334,-10508.598836802927,-9040.830023444332,-8998.027974432704,-9663.963868625828,0.0
-6842.141380407412,-7970.836964152098,-17697.22167290103,-8447.668514900526,-10291.100427175452,-9140.555585925013,-8877.557357400929,-9540.88895959487,0.0
-6828.908726459825,-7985.708304998175,-17590.118161922095,-8396.098187123478,-10184.345275730673,-9294.973833193093,-8775.594418148472,-9440.537761560396,0.0
-6724.13510983366,-7930.794964173428,-17431.34198266225,-8293.529675382053,-10185.989217506172,-9158.556850482391,-8704.811637940456,-9362.91243921632,0.0
-6574.211971577308,-7766.055465993765,-17177.071246442043,-8154.772104913787,-10142.089040138197,-8786.251417287303,-8633.392424670255,-9275.74677102777,0.0
-6485.852039190217,-7603.63454076541,-16914.65834504479,-8043.883308772115,-9962.249209033795,-8558.7236164403,-8529.801417328348,-9159.976764793122,0.0
-6480.611056745361,-7552.501209492459,-16743.525974254615,-7988.046594715817,-9744.022960086359,-8658.073892197197,-8407.308710236412,-9036.465002610612,0.0
-6466.000489559167,-7569.56983864557,-16638.018375169497,-7940.620745830845,-9640.271778768176,-8817.46598669176,-8306.780779911103,-8937.454275468377,0.0
-6362.5617305233845,-7517.498532658563,-16480.135736873483,-7844.07790697883,-9646.833330515954,-8687.453223704797,-8239.310833870317,-8860.674335801463,0.0
-6211.9795189406095,-7350.654782691192,-16220.09458287629,-7707.005504189087,-9603.183862627728,-8314.395568781432,-8168.119891860633,-8770.127890950043,0.0
-6118.3321976666975,-7177.9943225171755,-15943.470557969547,-7589.893986946886,-9413.463775005794,-8074.931922713267,-8057.841560601361,-8645.401023545535,0.0
-6106.189336980881,-7113.638256901355,-15755.51125915222,-7523.371639115998,-9178.700592288602,-8158.166793869724,-7924.287980472587,-8511.697607481661,0.0
-6087.896560452222,-7122.848296744893,-15639.411773288917,-7467.698312054735,-9061.973030471501,-8308.15899640434,-7815.110768439455,-8407.740343549194,0.0
-5985.579235212974,-7071.205174539476,-15481.346707119405,-7369.319237622622,-9066.01112737335,-8178.611256728729,-7745.931992848724,-8333.55563902221,0.0
-5840.2249950626565,-6911.179584296557,-15229.918028149632,-7237.426249282228,-9030.094220781833,-7811.685900418261,-7680.502951818496,-8251.204753859412,0.0
-5753.566440106394,-6747.834436982035,-14965.119924095154,-7129.901565018163,-8853.10602655877,-7578.999938907032,-7580.050765143794,-8136.011437562451,0.0
-5744.859131642777,-6688.753352260603,-14783.499880163656,-7070.3236000212255,-8627.048847135025,-7665.2299762715,-7452.641981652952,-8006.659570798904,0.0
-5722.86462993186,-6694.579926335751,-14662.284607805535,-7013.297998110953,-8508.236218097194,-7812.0253850557665,-7339.98714911903,-7897.9250951784015,0.0
-5612.413897384814,-6633.491218580875,-14490.033062196006,-6907.0301655120975,-8501.972593539285,-7674.932149027816,-7260.138800740531,-7813.028936128611,0.0
-5459.115781492827,-6463.138492154729,-14222.320454081966,-6765.506256738757,-8454.899295527406,-7299.168059277693,-7183.297237058564,-7719.446625714377,0.0
-5367.57165601063,-6291.579998192543,-13945.637859630016,-6650.035935261979,-8269.7774473142,-7058.579604735587,-7074.954338204624,-7595.424574841824,0.0
-5359.429758326429,-6228.934916177569,-13761.439059055409,-6587.410101926661,-8039.296571181926,-7141.304062490638,-6945.494409714514,-7461.698653028796,0.0
-5342.8956101941585,-6236.678810037822,-13647.004040697702,-6532.671052225787,-7919.732649029292,-7290.907055074655,-6836.400712388333,-7353.452827024835,0.0
-5237.434349068315,-6179.636680604416,-13484.785085080706,-6429.728504289731,-7914.87425627707,-7159.195409561531,-6762.084284993985,-7271.37544010807,0.0
-5083.9440441129245,-6011.37815456438,-13223.648537436835,-6289.0917757540265,-7868.60007472066,-6786.073856491576,-6689.226688659754,-7180.90903921459,0.0
-4986.702202360015,-5838.55357445586,-12946.788559565986,-6171.924736930116,-7681.758855949202,-6544.043850583452,-6581.827890656689,-7059.56160017578,0.0
-4970.043340402874,-5772.483547445372,-12755.90101185402,-6105.394603531912,-7447.702722630517,-6623.777666367894,-6450.04079286803,-6926.730636831477,0.0
-4947.116534955518,-5778.004608359978,-12632.851494395316,-6046.510635949953,-7326.063541552021,-6772.834445616885,-6337.598177601879,-6818.116494654445,0.0
-4841.59080841279,-5722.51551379818,-12466.158615391925,-5942.820435726734,-7323.705304993746,-6644.643190899109,-6262.530128302082,-6737.318719297356,0.0
-4693.135160503618,-5558.1265745421915,-12206.086511420475,-5805.219520447688,-7283.653463661155,-6276.028945505113,-6191.986190413034,-6649.963944660751,0.0
-4601.672015418777,-5388.615854561771,-11933.08270083672,-5692.2025639303965,-7103.109586133477,-6036.131170348279,-6087.356025842783,-6530.5424362038075,0.0
-4589.269997613997,-5324.276795729094,-11746.817136376483,-5629.8785729103465,-6872.576269712992,-6115.890258079938,-5956.788781023001,-6397.0170612061565,0.0
-4568.046496338348,-5329.434370420684,-11627.860594200321,-5575.051854221746,-6750.596589243212,-6263.308112450064,-5843.183160038739,-6285.948990179909,0.0
-4460.5624576779,-5271.399873731713,-11462.72762030989,-5473.585044628468,-6745.011962422453,-6130.7225715259,-5764.597468730004,-6202.277860724733,0.0
-4308.255894484999,-5104.8939359019205,-11201.32476718319,-5335.695494931225,-6702.174585757293,-5756.753075018894,-5690.542542660626,-6113.803217930183,0.0
-4215.624513580772,-4937.4490170217205,-10927.001131453093,-5222.127901498051,-6522.407859237625,-5515.718130401075,-5586.207912586248,-5997.325334294222,0.0
-4207.125698175906,-4879.955342950576,-10742.754251821107,-5161.235216645662,-6296.1325633808165,-5601.084004914175,-5460.9933507708765,-5870.574570922001,0.0
-4193.0018882343475,-4893.981407917319,-10629.911807061002,-5109.3249531485335,-6179.92189884357,-5757.874583635055,-5355.264334845342,-5767.162938432296,0.0
-4092.502654012138,-4843.822252468363,-10473.401581282436,-5010.560987220431,-6180.757927607543,-5633.282001681752,-5283.668706352636,-5688.8039058364175,0.0
-3944.313599256058,-4681.249059066552,-10219.723563986367,-4874.100938612621,-6143.709864300023,-5261.688268884765,-5212.990023190017,-5600.919393683637,0.0
-3851.0259714305344,-4510.706994652634,-9947.670495292767,-4759.574829786685,-5965.114906399764,-5015.786748596329,-5106.247637956264,-5479.115042900982,0.0
-3837.893267494619,-4443.917663124205,-9758.752573064266,-4694.981416579913,-5733.422636765257,-5092.821765486295,-4973.780398526695,-5343.04219090908,0.0
-3818.86819551937,-4448.648617521618,-9638.335590366754,-4638.843791629972,-5609.390540886454,-5245.029075714056,-4861.128903277009,-5231.405924627371,0.0
-3714.4641101754282,-4393.036125113782,-9474.710900322742,-4536.468193843299,-5603.362500859566,-5121.055681686161,-4785.979618687336,-5148.555679335937,0.0
-3559.646168615872,-4225.209152086624,-9212.124027014592,-4393.503442929631,-5557.4233099587145,-4748.604509260358,-4711.437647074833,-5056.5069798591485,0.0
-3456.6914866035895,-4047.1199325113985,-8929.136836055332,-4268.925142989116,-5367.417024331016,-4497.118806238244,-4598.003114515637,-4928.902589783981,0.0
-3439.331773026808,-3976.4768596025224,-8735.365464014872,-4199.268870713124,-5129.450744183691,-4570.547190828635,-4461.453008282658,-4791.204181494626,0.0
-3427.496471901582,-3986.4349712125363,-8622.398539720341,-4149.6631617966705,-5009.228257932923,-4726.429138440903,-4352.033156416906,-4686.628369823489,0.0
-3336.011058535403,-3941.336425196161,-8473.690993770624,-4059.9975463832034,-5012.685914533847,-4608.724017682917,-4283.944918071004,-4614.779811888097,0.0
-3191.913040015107,-3783.776736772883,-8226.036406707039,-3927.76120887857,-4977.084084660872,-4239.987545916132,-4216.214413375917,-4531.987888494374,0.0
-3095.53938529089,-3615.1616119676037,-7955.783732544988,-3809.956004060086,-4797.241138785815,-3991.670681308806,-4109.6475406705895,-4411.599303105688,0.0
-3079.1772193986635,-3552.2378977351436,-7770.6010494854445,-3742.4799947944575,-4565.786423920375,-4069.668515393519,-3978.6461763373645,-4278.2803657246095,0.0
-3059.776852272687,-3563.9953198365297,-7658.381765720409,-3688.741104962639,-4443.898312815306,-4228.513679252764,-3869.6267092107314,-4172.459577790197,0.0
-2955.098439872898,-3514.0447396857485,-7503.926181251728,-3591.799132936663,-4440.579107626102,-4110.453709742378,-3798.1613257564222,-4095.9824053938787,0.0
-2802.033682276052,-3350.7322564788383,-7251.8695581886495,-3457.386536951341,-4402.291782268022,-3741.472378227162,-3730.4094066236794,-4012.7390835460756,0.0
-2706.8049579910366,-3180.219901775421,-6983.621957494491,-3345.613119871216,-4227.98868606688,-3495.8858873320887,-3629.9875234766982,-3898.820010302206,0.0
-2697.695216123436,-3117.516727426333,-6803.675708615022,-3286.060306559087,-4005.393003631108,-3578.021733442759,-3505.6599888960595,-3772.6566838527133,0.0
-2686.046873620314,-3128.9060427066115,-6696.198611028345,-3236.455181088187,-3890.2048009777504,-3740.429600358015,-3398.9142737541138,-3669.0064446705996,0.0
-2588.934518987163,-3078.7687927013085,-6547.543495076025,-3141.2515299202064,-3891.3359221956525,-3624.796720144916,-3326.7218901624738,-3590.9233461299814,0.0
-2443.734150748715,-2916.3371245842754,-6303.986754663709,-3008.765836056165,-3856.757923535501,-3256.286385416734,-3258.0589536331618,-3505.399904644769,0.0
-2356.596375985632,-2748.520037345357,-6046.381250425127,-2900.188671299862,-3686.678918613,-3011.061020745431,-3158.9111510174544,-3391.0727679302277,0.0
-2356.3610179602847,-2692.7028190007695,-5879.091552764566,-2846.675391759692,-3470.855415627091,-3098.485138031656,-3040.7220989971966,-3269.166007695192,0.0
-2352.24596157999,-2714.8159936001116,-5783.778764973657,-2804.736049438212,-3364.3188833487184,-3271.7894682060123,-2943.7522387020194,-3173.5735767677043,0.0
-2256.783050044366,-2674.799417823677,-5641.233775600242,-2714.2254881141807,-3372.3454760892364,-3167.1083759413423,-2880.0633271318684,-3102.8277794600513,0.0
-2106.357456063696,-2518.718865718822,-5395.502702231592,-2581.3668294186323,-3340.823074178404,-2804.515777176611,-2815.724885319191,-3021.168812110569,0.0
-2010.016331916195,-2352.285560878257,-5130.095659648464,-2468.646492060245,-3168.846994565732,-2557.987623789103,-2715.355860314714,-2906.236263710209,0.0
-2001.0478491099454,-2292.2824331860097,-4954.435230029705,-2409.818002599313,-2945.8796403140077,-2637.723067284651,-2589.835900369794,-2779.4762967000706,0.0
-1994.9011735908643,-2308.0049791556326,-4857.202796920089,-2366.0471027778212,-2831.8089334147276,-2802.769831152012,-2484.053152172339,-2679.5616127517987,0.0
-1906.7024924780246,-2264.387611025637,-4722.763619885778,-2279.968988041844,-2837.850037683245,-2694.4178613786507,-2416.5448752293396,-2610.242637012352,0.0
-1767.0419793036192,-2107.23981404275,-4490.2040504710085,-2154.336342052876,-2808.6111863538417,-2330.4951479060687,-2353.7702149835272,-2534.3186375131913,0.0
-1677.6746082349673,-1939.6854822485475,-4235.553895862821,-2046.7507326632287,-2637.950258553971,-2081.616498287761,-2256.697756247939,-2424.5030151511683,0.0
-1668.946815870307,-1878.9233321540135,-4064.395875444191,-1989.0032752376364,-2413.1312469037284,-2159.9565706257795,-2133.340693830978,-2299.0686146962707,0.0
-1656.5408694274106,-1895.617813714936,-3965.201206532663,-1942.4957285218552,-2295.597283626556,-2327.220267524772,-2027.2347985541603,-2196.0683820427894,0.0
-1559.6984847804624,-1855.2282935561245,-3826.5056732045,-1853.1671961295547,-2300.564667327097,-2224.0118651443927,-1958.6742055968825,-2122.328215426764,0.0
-1414.6579173967336,-1702.869266093674,-3592.9731972183818,-1727.58300648412,-2275.171600877742,-1865.2511634742748,-1897.0515575502566,-2044.578213754748,0.0
-1324.2884728914926,-1538.9498037307594,-3341.4251494733094,-1622.421254823765,-2110.5491652025344,-1618.828350520715,-1802.7897249506998,-1935.3206177883844,0.0
-1317.6684034343682,-1479.7038102775111,-3176.0656282731134,-1567.1637516655978,-1890.5721720377007,-1698.4245111118266,-1682.637628490333,-1811.562132587165,0.0
-1311.1497343627689,-1499.517894540613,-3086.8355488808497,-1524.411084069403,-1778.1494099982554,-1871.0845835575399,-1582.0228072022264,-1713.1058691264057,0.0
-1223.0533347376438,-1467.0688872787312,-2962.5505237930697,-1440.9261994515048,-1791.521590981156,-1779.309805267761,-1522.5685336350812,-1647.8663212108156,0.0
-1085.6023575579245,-1325.497137379606,-2743.8470411070007,-1321.1334521425838,-1777.738932218393,-1433.8907411102912,-1471.8409834249837,-1580.6280739280512,0.0
-1000.0860339224394,-1171.1600849112417,-2504.4857423507733,-1221.1429243284765,-1625.8730930220343,-1198.49087785471,-1388.5853606312746,-1482.3531352081832,0.0
-998.3607308600059,-1118.4557107495627,-2349.659502275109,-1172.775716912503,-1417.9046996971476,-1286.4684171535478,-1279.2669752192674,-1370.033413745063,0.0
-998.4473346823054,-1141.2465167623811,-2269.644239106212,-1138.4745336211477,-1314.0425207382918,-1464.700863350435,-1187.1182254266273,-1281.5568197947823,0.0
-915.8138648562222,-1106.852207787593,-2150.373029430024,-1060.6223550297289,-1329.2660971535433,-1372.0261918875588,-1129.4610831347109,-1220.663384261813,0.0
-780.2897919282519,-959.1423724515338,-1932.3689227307968,-941.8678284075569,-1311.433508812495,-1017.4625288126274,-1073.7199771381256,-1151.7285859705655,0.0
-695.9716045502294,-800.1782948006028,-1695.2515244805616,-842.5642572146769,-1155.7830758631449,-770.905929973126,-985.0843318362208,-1051.5312554338611,0.0
-698.2647827968563,-749.7241886873626,-1548.3194672504737,-797.9114718626807,-949.0573283573917,-854.5335724835917,-875.4171287486051,-941.6653216795162,0.0
-703.8329674707614,-780.4081918007181,-1478.8027525006066,-768.471493729398,-850.7817046407837,-1037.6540285872395,-786.9761178641774,-858.289149826523,0.0
-624.4485298997932,-754.0787337502079,-1367.9959754004462,-694.1843404112146,-873.6082717042526,-954.7486771872877,-734.3161185742473,-802.1797877364527,0.0
-488.2162966181676,-609.9270871401204,-1154.2807042064062,-577.075994707362,-862.7813340805484,-608.2505755874673,-683.5527082094308,-737.0190332781336,0.0
-398.84610088151635,-447.6367113432693,-915.1067830034367,-475.5477286032526,-708.6776782171921,-363.32740045466176,-597.1839265838188,-637.6627578879579,0.0
-392.90026638933386,-388.91775637464485,-759.6463498461068,-423.3464105290263,-495.3943752480434,-443.47708788286695,-484.5555265341742,-523.545349073302,0.0
-391.655375771251,-413.510059287305,-681.6444550821165,-384.8154808021492,-387.8777993780222,-624.9043716498536,-390.8379965161838,-433.93127299271697,0.0
-311.51064653958167,-389.25029254834834,-570.2701509413541,-305.53323413212524,-407.284845200517,-546.5142537520044,-336.1679578561465,-375.3360327017302,0.0
-181.1143677663018,-254.65571158594793,-365.7064795268009,-189.95084124067313,-401.6607315802362,-208.56722534850263,-288.92480496102814,-313.51228639524675,0.0
-102.46226156042785,-105.32259809790183,-143.16512271225702,-97.43850500284422,-258.73780346269916,26.680171639954374,-211.38633836514424,-222.5809708098253,0.0
-108.90529205501208,-58.58293029333131,-8.009208138211873,-60.84697275262904,-58.09286194821864,-63.79154639990744,-111.14938684038182,-119.910435011435,0.0
-116.10224195071065,-89.09639609975721,52.683330270079594,-38.31657756130871,40.55482311987011,-254.08321681490526,-28.520326770881745,-40.18261586983623,0.0
-36.96090124208997,-62.64745714591051,155.42409513095754,31.79555644562548,18.318727601068147,-179.07018813708578,20.815718801643968,14.00379044739506,0.0
97.32220119594126,78.05627607895343,359.49634913664426,146.47786832471738,24.367248090771923,162.45254132145323,68.2770174599519,76.51690448805239,0.0
179.20664962942666,231.24085498652747,584.4791519134981,242.54181604426125,167.46037378775557,405.36825293515125,148.48469293032565,169.94795079489785,0.0
171.44914819711664,276.54326267591546,719.4655394280597,282.29011734657803,367.3144388607432,321.5547596803711,250.99559979050244,273.4677881194139,0.0
158.04178536393812,239.15467450626267,773.6537831619742,304.1847089900086,463.70371611056856,132.40204564375426,333.17755078141806,350.0908474227778,0.0
228.03287238762312,253.66107521855992,862.4192582719475,368.1810131054543,434.6411022443094,200.28923079803926,376.52343803434286,395.7773281071388,0.0
353.2010650034826,379.81085717526383,1048.078319179568,472.3199544947818,427.9488280561952,527.1503446608244,411.5930135855659,444.8860472476074,0.0
430.41513966076025,522.4900400241196,1257.2544303189557,558.4183554261031,557.5234958830139,754.0253014619254,478.03847919891956,524.8435527653738,0.0
425.1687143655448,566.2231917265715,1383.9623196838893,593.3889730379391,749.1477288068169,659.1957265227429,572.2768360234259,620.4944119709935,0.0
419.11810504175133,533.525342355791,1435.9519836943784,615.7174142695425,842.8250498976399,464.4963133377804,653.3916269763505,696.0647976548316,0.0
497.4453255574507,554.5653653327279,1525.4489771990154,684.0359941589767,814.1162256450014,531.2337644460302,700.9184115219084,745.9582021410107,0.0
628.4996175721551,687.3868825889867,1712.5123285174614,794.45513914196,809.0929762933364,862.1078341564192,742.2428996836604,801.4047515558107,0.0
704.1424832844549,833.1914239595574,1919.7581374263484,883.4410911954938,938.6404827522464,1094.8261606608387,811.5872770143476,884.0637650220146,0.0
687.6616652615536,871.9591394981614,2038.1543513571953,913.9499694148254,1125.9578239219068,1000.5092393819599,901.6739211393447,975.4234334046788,0.0
665.461583464945,827.305330731074,2076.9343622294227,926.416278015375,1212.4314320165486,798.3476239131339,973.4314655262554,1042.0177744738378,0.0
728.9859310444356,834.2606777184666,2151.1163939122453,982.7038929414523,1176.5155766837515,853.0899418271686,1010.111549918443,1081.3529443676862,0.0
849.8974885629868,954.6270564963867,2322.8860921180635,1081.0220566862597,1165.0841211963752,1172.1727510324718,1041.9704930464038,1126.7172087861031,0.0
921.9006818790837,1092.812573704308,2518.1167342902263,1161.0961618306762,1289.1210855447632,1396.6489011523759,1105.8855014346825,1202.8897079483168,0.0
908.265707023362,1131.233964630772,2630.6627370377087,1188.2731924035293,1473.4474296378555,1298.8844347412605,1195.431849161897,1293.1804272361235,0.0
892.2509815109247,1091.9343379739432,2668.976354421059,1201.7138948777886,1559.9840206820681,1097.00018263488,1269.1883399221674,1361.7037162206143,0.0
960.8955972706353,1104.533933470218,2743.981216014684,1260.0035406957372,1523.3656392631813,1153.1187722251852,1306.3934574159714,1401.3584252429953,0.0
1082.884292985135,1226.3501174938638,2913.9040713190225,1358.5444234111344,1506.530740343471,1472.3599593760057,1334.718903463304,1442.8603123236494,0.0
1152.5525847265205,1361.9093943348812,3103.7748050760374,1436.6527989744077,1622.787304608935,1695.8785807252457,1392.8979053508328,1512.8131267857998,0.0
1136.61657025123,1396.3338493675183,3208.894812011121,1461.6989520559612,1802.1581432374542,1597.2018991614539,1479.076087390928,1598.534829017707,0.0
1119.4334279552859,1352.1740541064435,3238.226333980934,1473.683120642223,1886.5606988933973,1393.217116046199,1552.8724394095743,1665.3431439413077,0.0
1185.870340385546,1358.3832928935433,3302.9425974734436,1530.1185435712673,1847.2890677428359,1445.3303935458266,1590.5635158947694,1704.2574291499757,0.0
1304.3225245556962,1475.0678219588506,3463.9488389260637,1626.7758257759674,1827.9770482620904,1762.66385015072,1618.479351880248,1745.0869706777567,0.0
1370.0026285451427,1609.3358860873977,3647.987148501201,1703.2506922864404,1944.1263072337858,1988.1772955048684,1675.5561373266435,1814.193898908994,0.0
1347.2060488927755,1642.3941625337907,3746.7078414771067,1723.8892425447364,2123.1582530644127,1888.8258300846242,1758.0537362095374,1896.5416394994118,0.0
1318.4611135765258,1591.5499055964324,3764.2151804142645,1726.1528344369503,2202.8159246090895,1675.6155148892994,1823.8842549589792,1955.1166119183931,0.0
