EEG 1, EEG 2, EEG 3, EEG 4, EEG 5, EEG 6, EEG 7, EEG 8, TRIG
208120.100,246475.900,602241.100,280671.000,323554.300,282569.300,273698.100,294550.700,0.000
204172.800,241386.200,579703.200,270810.300,316926.800,276669.700,268225.100,288602.300,0.000
200913.000,237090.400,562547.800,263239.300,310598.700,272292.600,263277.100,283268.400,0.000
197850.900,233574.000,548687.100,256939.600,305519.600,268414.600,258964.500,278623.700,0.000
194917.900,230000.700,536899.300,251580.500,300905.900,264071.000,255129.300,274454.600,0.000
192200.300,226662.100,526635.200,246920.900,296625.800,259757.800,251687.500,270694.800,0.000
189829.800,223639.900,517557.300,242850.700,292497.300,256201.300,248459.900,267192.400,0.000
187899.100,221087.600,509826.900,239447.900,288472.000,253773.600,245443.000,263959.200,0.000
185997.500,219044.400,503017.400,236328.200,285395.400,251579.300,242788.000,261121.000,0.000
184082.100,216755.600,496737.900,233466.900,282539.600,248725.600,240375.700,258509.500,0.000
182255.800,214544.500,490918.600,230823.400,279828.100,245739.500,238173.000,256100.800,0.000
180689.200,212545.100,485541.400,228442.300,277132.100,243360.800,236073.500,253822.000,0.000
179442.400,210867.900,480884.300,226425.600,274366.300,241918.600,234037.900,251644.300,0.000
178165.900,209597.100,476696.900,224492.500,272385.600,240617.000,232254.700,249743.800,0.000
176832.700,208036.000,472709.400,222674.500,270543.500,238623.700,230646.000,247991.100,0.000
175520.800,206466.500,468882.900,220934.600,268720.000,236400.600,229153.300,246347.400,0.000
174379.700,205014.700,465228.300,219309.000,266806.200,234657.900,227660.000,244729.400,0.000
173559.800,203866.300,462121.500,217994.100,264795.400,233817.200,226215.000,243195.500,0.000
172665.100,203060.300,459311.700,216684.300,263469.100,233056.800,224955.000,241863.000,0.000
171670.500,201913.200,456555.300,215416.100,262204.600,231546.400,223807.800,240614.500,0.000
170675.900,200725.100,453842.700,214170.900,260910.200,229773.600,222737.200,239434.900,0.000
169857.300,199646.800,451223.000,213025.500,259516.800,228468.800,221667.000,238273.500,0.000
169306.400,198820.200,449033.100,212121.800,257968.000,227991.700,220591.900,237138.100,0.000
168683.300,198326.600,447080.000,211200.400,257079.300,227585.900,219686.500,236186.600,0.000
167927.800,197463.000,445093.100,210271.200,256204.100,226416.900,218853.300,235277.400,0.000
167155.700,196536.900,443098.600,209347.100,255273.800,224961.700,218074.700,234413.800,0.000
166556.600,195720.000,441157.300,208509.400,254230.300,223947.300,217296.000,233561.200,0.000
166197.400,195121.300,439583.600,207879.300,253010.500,223719.600,216481.800,232706.000,0.000
165715.700,194792.400,438157.100,207184.700,252367.700,223517.400,215781.600,231979.800,0.000
165148.600,194160.300,436717.600,206516.600,251792.800,222624.000,215190.600,231331.000,0.000
164554.500,193442.700,435236.100,205836.000,251139.700,221413.900,214642.000,230710.600,0.000
164076.800,192781.300,433732.600,205187.500,250321.200,220578.300,214038.200,230050.900,0.000
163838.700,192338.600,432569.800,204740.500,249310.900,220524.000,213403.200,229385.400,0.000
163507.700,192181.600,431565.400,204244.100,248895.700,220510.700,212894.700,228862.700,0.000
163056.500,191689.600,430489.100,203733.300,248508.400,219785.500,212455.800,228379.900,0.000
162570.400,191104.700,429350.500,203199.700,248027.000,218737.200,212048.200,227914.700,0.000
162215.900,190589.000,428201.300,202710.900,247406.200,218067.600,211601.700,227422.800,0.000
162104.600,190281.000,427368.000,202421.300,246582.500,218155.200,211115.700,226919.400,0.000
161885.600,190242.800,426660.100,202066.400,246314.300,218272.200,210739.700,226539.300,0.000
161520.300,189858.200,425850.200,201669.400,246061.600,217671.600,210408.200,226177.100,0.000
161124.600,189383.500,424972.800,201254.900,245721.700,216753.400,210116.100,225838.700,0.000
160833.600,188951.600,424043.500,200858.400,245218.400,216177.300,209764.200,225452.500,0.000
160788.200,188723.900,423427.800,200665.400,244511.900,216354.100,209379.400,225058.100,0.000
160633.800,188764.600,422928.900,200402.800,244347.700,216562.400,209097.100,224777.900,0.000
160352.000,188481.200,422334.600,200109.800,244223.600,216078.000,208871.600,224527.500,0.000
160010.100,188074.300,421639.400,199774.400,243983.700,215245.000,208655.300,224272.900,0.000
159784.000,187716.600,420898.700,199465.900,243586.300,214758.300,208392.000,223977.800,0.000
159794.000,187553.000,420450.700,199343.300,242970.900,215005.700,208078.400,223659.300,0.000
159697.300,187650.100,420110.300,199150.800,242885.300,215280.900,207864.000,223454.000,0.000
159469.100,187433.300,419665.700,198926.300,242837.600,214876.400,207705.900,223280.100,0.000
159192.100,187103.600,419125.300,198665.000,242685.300,214130.500,207566.100,223101.200,0.000
159020.200,186814.900,418523.800,198420.800,242372.800,213714.300,207366.400,222875.300,0.000
159063.800,186686.400,418193.400,198350.300,241813.200,213999.700,207101.800,222608.500,0.000
158996.000,186799.300,417965.100,198208.800,241759.500,214287.300,206935.600,222448.600,0.000
158799.000,186622.100,417618.900,198025.100,241759.000,213938.000,206821.700,222318.200,0.000
158559.300,186354.100,417183.300,197808.800,241685.900,213284.600,206732.700,222199.400,0.000
158414.200,186105.000,416686.400,197607.700,241446.600,212920.800,206578.200,222026.900,0.000
158508.800,186018.400,416481.800,197611.000,240956.200,213240.900,206384.000,221832.800,0.000
158482.000,186180.200,416355.800,197526.700,240957.300,213581.100,206271.500,221732.100,0.000
158300.800,186034.600,416080.600,197368.300,240988.400,213271.200,206182.500,221631.000,0.000
158085.000,185799.900,415723.800,197185.800,240953.100,212654.200,206120.100,221542.700,0.000
157970.200,185589.300,415308.500,197022.000,240760.700,212328.800,206003.800,221410.500,0.000
158071.700,185512.600,415157.200,197032.400,240289.200,212662.300,205823.100,221231.700,0.000
158064.700,185691.600,415097.200,196972.900,240316.800,213025.200,205731.600,221154.300,0.000
157941.100,185609.200,414924.100,196878.900,240421.900,212782.300,205702.100,221112.800,0.000
157753.600,185401.100,414635.900,196729.400,240423.000,212199.500,205670.300,221058.000,0.000
157664.200,185220.200,414283.500,196594.200,240268.800,211903.900,205582.700,220953.800,0.000
157792.900,185179.800,414192.500,196638.600,239840.800,212273.500,205434.400,220810.100,0.000
157802.300,185380.900,414179.100,196601.100,239890.900,212662.700,205367.700,220758.400,0.000
157670.300,185294.700,414029.300,196500.700,239992.800,212419.300,205336.400,220719.200,0.000
157492.000,185098.500,413783.600,196366.900,240010.500,211848.800,205322.200,220682.600,0.000
157409.800,184929.200,413470.500,196249.600,239883.000,211564.800,205256.100,220600.600,0.000
157540.400,184886.100,413406.900,196307.500,239462.400,211935.800,205119.500,220470.500,0.000
157576.100,185110.200,413445.000,196302.500,239535.600,212351.200,205079.400,220448.900,0.000
157452.800,185036.800,413332.900,196221.100,239663.500,212127.300,205063.800,220431.400,0.000
157278.000,184847.300,413112.900,196096.200,239694.700,211568.400,205059.900,220410.200,0.000
157209.000,184697.500,412835.800,195992.500,239590.600,211302.300,205014.200,220351.600,0.000
157357.900,184674.900,412809.500,196062.000,239194.600,211693.000,204895.200,220238.500,0.000
157393.300,184904.900,412868.800,196055.100,239271.200,212118.400,204856.700,220215.900,0.000
157299.300,184869.000,412804.300,196002.300,239437.100,211938.600,204873.800,220225.800,0.000
157149.700,184706.800,412627.300,195903.800,239496.500,211412.300,204894.500,220223.300,0.000
157088.900,184565.300,412378.100,195813.600,239404.300,211151.400,204854.400,220168.800,0.000
157255.000,184556.600,412383.100,195906.900,239023.900,211553.500,204750.300,220072.400,0.000
157280.200,184771.200,412443.300,195892.300,239092.900,211965.700,204697.400,220039.200,0.000
157181.100,184722.300,412380.400,195831.200,239248.000,211771.000,204701.900,220039.300,0.000
157047.500,184569.700,412225.500,195746.000,239312.600,211252.700,204733.500,220050.000,0.000
157010.400,184454.100,412009.100,195677.500,239247.300,211013.300,204719.500,220026.700,0.000
157178.200,184451.500,412032.100,195777.100,238880.300,211423.500,204626.100,219941.700,0.000
157223.300,184685.100,412120.100,195785.900,238966.700,211860.000,204597.500,219932.900,0.000
157133.100,184651.000,412079.700,195737.400,239132.300,211683.300,204616.500,219949.100,0.000
156984.600,184493.400,411927.300,195639.400,239195.400,211160.900,204639.700,219952.400,0.000
156924.500,184359.300,411695.600,195551.000,239118.100,210899.400,204610.300,219911.300,0.000
157083.200,184345.700,411712.300,195644.100,238742.400,211302.600,204512.400,219823.700,0.000
157136.200,184587.300,411822.800,195663.600,238841.500,211754.500,204494.200,219823.400,0.000
157053.900,184566.700,411801.400,195626.500,239023.800,211593.200,204521.700,219846.700,0.000
156914.500,184410.700,411664.800,195545.000,239094.500,211078.600,204558.900,219861.300,0.000
156860.200,184281.200,411451.500,195469.000,239030.200,210826.800,204544.900,219834.900,0.000
157018.400,184274.000,411474.700,195558.300,238660.000,211229.600,204444.500,219742.900,0.000
157081.700,184527.800,411598.300,195584.800,238761.200,211689.900,204432.100,219750.000,0.000
157004.300,184510.400,411584.900,195549.700,238946.800,211535.500,204462.100,219776.400,0.000
156867.200,184358.500,411458.000,195469.900,239022.600,211020.700,204497.300,219793.400,0.000
156821.000,184241.900,411258.600,195399.900,238968.300,210771.500,204485.800,219770.200,0.000
156982.700,184232.000,411289.200,195492.800,238599.900,211174.400,204390.700,219684.600,0.000
157061.800,184496.400,411432.300,195535.000,238715.700,211647.800,204392.600,219707.700,0.000
156986.300,184480.400,411424.500,195504.600,238904.300,211497.400,204424.300,219742.200,0.000
156848.600,184320.400,411299.000,195426.100,238972.600,210979.200,204456.300,219755.000,0.000
156792.500,184189.300,411090.600,195349.100,238907.500,210714.500,204437.500,219725.200,0.000
156962.500,184191.900,411130.000,195449.400,238548.000,211126.800,204352.700,219648.300,0.000
157037.100,184457.300,411275.600,195491.800,238664.300,211604.300,204354.600,219669.300,0.000
156962.100,184454.000,411273.400,195460.500,238865.300,211464.400,204392.300,219705.000,0.000
156821.500,184295.300,411150.100,195378.700,238931.600,210946.000,204424.900,219718.100,0.000
156766.900,184174.900,410950.700,195301.400,238876.800,210688.800,204413.500,219691.800,0.000
156925.000,184165.700,410985.600,195395.900,238512.000,211092.800,204321.900,219608.000,0.000
156995.600,184421.800,411126.300,195434.800,238617.200,211569.500,204315.300,219623.300,0.000
156912.700,184405.800,411119.900,195400.500,238808.400,211422.800,204346.700,219653.800,0.000
156776.100,184252.400,411005.900,195325.800,238881.700,210912.100,204388.300,219679.100,0.000
156718.700,184128.000,410808.400,195246.900,238833.800,210650.200,204376.900,219655.200,0.000
156894.900,184131.300,410858.700,195353.400,238482.000,211064.400,204295.400,219580.300,0.000
156970.800,184389.000,411008.700,195392.800,238583.700,211540.200,204285.400,219591.200,0.000
156891.400,184374.800,411011.000,195358.100,238777.300,211396.500,204313.200,219619.500,0.000
156780.100,184242.000,410921.800,195308.900,238868.200,210902.000,204373.000,219659.900,0.000
156731.400,184128.700,410733.100,195239.900,238824.600,210641.400,204366.300,219641.600,0.000
156902.400,184128.700,410779.400,195342.900,238473.400,211053.800,204283.200,219565.500,0.000
156962.800,184379.900,410917.300,195368.100,238566.100,211529.000,204264.000,219567.600,0.000
156880.500,184371.800,410922.800,195334.500,238764.400,211389.100,204296.200,219596.200,0.000
156755.600,184223.800,410826.500,195271.200,238841.700,210876.200,204344.900,219624.000,0.000
156695.400,184097.300,410630.400,195193.800,238792.000,210597.600,204333.100,219602.200,0.000
156866.200,184099.100,410672.100,195295.300,238435.200,211009.900,204248.500,219528.200,0.000
156953.000,184375.600,410832.900,195344.800,238548.800,211519.800,204253.500,219553.700,0.000
156876.300,184361.500,410842.600,195314.100,238740.400,211369.600,204287.200,219585.000,0.000
156734.700,184193.700,410726.800,195228.000,238798.500,210840.600,204316.200,219596.200,0.000
156690.800,184083.000,410542.500,195161.500,238760.800,210576.900,204316.400,219583.900,0.000
156864.100,184086.800,410586.200,195266.900,238407.500,210994.000,204237.400,219511.300,0.000
156946.500,184354.900,410747.100,195317.600,238512.900,211491.600,204236.800,219531.800,0.000
156872.400,184351.500,410760.100,195289.000,238712.700,211362.500,204272.700,219567.500,0.000
156745.000,184200.200,410662.200,195224.100,238789.600,210849.900,204316.000,219594.300,0.000
156685.500,184077.000,410469.800,195149.600,238750.800,210574.000,204309.700,219576.200,0.000
156846.200,184066.500,410504.200,195244.600,238390.600,210973.000,204220.800,219497.200,0.000
156924.100,184323.700,410657.200,195287.500,238484.100,211462.400,204215.900,219514.800,0.000
156850.500,184324.000,410671.400,195256.600,238688.100,211341.600,204247.500,219551.700,0.000
156735.500,184185.600,410594.000,195202.200,238781.400,210844.300,204307.800,219592.100,0.000
156675.100,184062.400,410404.800,195120.800,238741.900,210559.500,204302.900,219572.200,0.000
156836.900,184051.300,410439.800,195213.300,238378.800,210954.400,204212.500,219489.800,0.000
156947.200,184344.600,410626.300,195288.500,238500.100,211479.200,204237.100,219532.100,0.000
156867.500,184346.300,410635.600,195250.100,238707.300,211356.700,204260.400,219555.900,0.000
156729.600,184180.300,410533.200,195178.200,238774.100,210833.100,204292.200,219573.300,0.000
156671.500,184059.300,410348.100,195108.900,238736.400,210547.200,204286.600,219557.500,0.000
156832.500,184045.700,410377.500,195207.700,238371.800,210939.800,204197.000,219472.900,0.000
156915.800,184306.700,410539.000,195259.800,238465.200,211438.200,204194.000,219490.200,0.000
156854.400,184327.300,410569.400,195243.400,238687.400,211339.800,204240.100,219537.600,0.000
156726.200,184172.800,410481.700,195185.400,238764.800,210829.700,204288.300,219567.500,0.000
156653.800,184044.600,410290.300,195104.500,238727.300,210533.100,204279.800,219549.000,0.000
156825.100,184043.200,410329.300,195205.900,238370.500,210937.100,204200.100,219477.100,0.000
156911.800,184307.400,410493.900,195251.100,238456.600,211440.700,204194.500,219491.700,0.000
156849.300,184332.300,410524.800,195225.200,238682.200,211346.400,204242.500,219536.800,0.000
156716.000,184173.600,410429.900,195156.300,238755.800,210828.400,204287.300,219560.100,0.000
156652.600,184053.300,410241.300,195078.800,238725.400,210539.200,204285.900,219546.000,0.000
156815.300,184043.200,410276.000,195176.900,238369.200,210933.500,204201.900,219474.700,0.000
156899.600,184299.600,410435.100,195227.500,238451.200,211433.300,204192.400,219491.500,0.000
156834.100,184312.800,410462.300,195205.500,238670.000,211329.000,204231.000,219531.200,0.000
156710.200,184160.300,410377.000,195148.400,238747.300,210820.000,204279.800,219559.700,0.000
156642.600,184036.000,410183.800,195066.900,238713.800,210523.800,204273.600,219541.600,0.000
156808.900,184026.500,410219.600,195165.400,238357.300,210920.000,204189.900,219467.900,0.000
156897.900,184291.400,410383.600,195218.100,238443.400,211431.100,204183.300,219484.400,0.000
156828.300,184304.300,410409.000,195190.500,238659.500,211322.300,204223.800,219524.500,0.000
156706.000,184152.700,410323.300,195129.800,238733.700,210820.400,204271.100,219552.100,0.000
156636.700,184029.600,410134.900,195044.000,238705.600,210522.200,204262.400,219533.800,0.000
156795.300,184007.100,410161.900,195135.000,238340.200,210898.400,204170.200,219451.800,0.000
156899.100,184274.900,410336.800,195204.700,238428.600,211411.700,204178.300,219480.400,0.000
156838.900,184301.400,410367.600,195189.900,238652.500,211326.500,204224.100,219525.900,0.000
156710.400,184148.600,410282.500,195132.400,238731.200,210824.600,204270.800,219557.400,0.000
156640.000,184029.900,410099.000,195055.700,238713.800,210530.400,204271.300,219546.400,0.000
156793.400,184006.000,410123.300,195147.100,238350.700,210902.900,204178.100,219460.100,0.000
156886.500,184279.600,410286.700,195204.100,238433.700,211433.500,204172.800,219478.500,0.000
156831.800,184316.100,410330.000,195191.800,238671.600,211356.600,204221.100,219526.900,0.000
156704.000,184144.000,410253.900,195136.400,238736.800,210815.300,204266.700,219548.800,0.000
156628.900,184006.800,410057.400,195052.800,238690.200,210487.100,204257.200,219526.700,0.000
156796.500,184006.800,410081.500,195146.200,238339.400,210890.100,204169.600,219447.600,0.000
156894.600,184286.900,410246.500,195201.100,238429.700,211433.000,204162.300,219464.500,0.000
156830.200,184313.300,410281.600,195175.800,238655.000,211342.100,204199.900,219505.200,0.000
156697.600,184138.800,410203.600,195114.700,238713.600,210798.800,204243.800,219529.000,0.000
156622.400,184007.900,410015.300,195031.800,238679.600,210477.400,204243.600,219513.000,0.000
156789.800,184004.600,410037.700,195129.800,238321.800,210881.600,204161.300,219439.800,0.000
156902.500,184295.800,410220.100,195200.800,238423.800,211440.500,204173.100,219476.200,0.000
156819.700,184306.200,410241.300,195158.300,238642.300,211343.300,204196.400,219503.700,0.000
156692.900,184132.100,410166.700,195104.500,238712.000,210806.500,204243.300,219530.600,0.000
156619.700,183995.100,409975.100,195022.600,238679.000,210474.900,204243.500,219515.500,0.000
156789.800,183995.300,409998.400,195122.100,238327.400,210877.800,204166.900,219449.300,0.000
156882.400,184268.400,410161.500,195173.800,238405.400,211418.300,204158.000,219461.100,0.000
156812.800,184295.400,410196.500,195144.400,238634.500,211339.200,204195.800,219496.600,0.000
156691.600,184127.300,410131.600,195100.600,238708.200,210811.300,204254.800,219531.600,0.000
156611.700,183991.000,409939.800,195013.600,238676.400,210472.800,204252.600,219515.700,0.000
156772.200,183985.500,409958.000,195105.200,238326.500,210867.700,204168.700,219442.400,0.000
156866.500,184256.800,410116.800,195157.700,238397.800,211410.900,204156.700,219455.300,0.000
156806.100,184291.000,410158.900,195136.500,238635.100,211339.600,204200.100,219501.400,0.000
156687.300,184128.900,410103.800,195094.600,238709.700,210806.300,204257.500,219537.000,0.000
156608.900,183997.900,409915.800,195012.300,238677.500,210467.300,204257.700,219521.700,0.000
156762.600,183984.400,409924.100,195091.400,238309.900,210856.500,204161.500,219433.900,0.000
156856.200,184261.900,410080.800,195138.600,238383.900,211416.000,204143.300,219439.300,0.000
156800.100,184293.900,410130.900,195127.400,238624.500,211334.700,204190.800,219490.100,0.000
156681.300,184128.000,410071.800,195084.600,238699.400,210802.300,204249.500,219526.000,0.000
156599.300,183988.600,409878.700,194995.600,238666.700,210456.500,204243.900,219505.700,0.000
156778.400,183994.900,409903.900,195100.900,238325.600,210864.800,204172.900,219444.700,0.000
156885.500,184279.500,410069.200,195162.500,238400.900,211428.200,204169.200,219462.300,0.000
156806.600,184294.200,410094.100,195123.000,238616.300,211335.600,204190.300,219484.400,0.000
156691.200,184130.000,410042.300,195079.700,238694.200,210802.400,204242.500,219516.000,0.000
156624.800,184012.200,409866.700,195005.600,238690.400,210473.300,204255.400,219512.400,0.000
156774.400,183987.000,409860.000,195082.200,238320.200,210850.800,204156.100,219421.900,0.000
156872.800,184256.300,410014.800,195135.800,238380.800,211405.800,204142.600,219432.800,0.000
156817.200,184293.500,410065.800,195121.000,238618.000,211333.900,204188.600,219479.600,0.000
156696.500,184125.900,410011.100,195075.100,238694.600,210800.300,204238.900,219512.600,0.000
156617.300,183994.300,409825.100,194987.800,238677.700,210457.100,204239.200,219501.400,0.000
156774.800,183976.700,409830.100,195074.500,238317.300,210841.000,204152.900,219423.800,0.000
156863.500,184232.400,409977.100,195121.900,238354.700,211377.200,204128.100,219423.200,0.000
156809.000,184277.200,410031.100,195111.900,238591.300,211316.900,204179.400,219479.300,0.000
156698.700,184134.500,409993.300,195083.400,238693.700,210812.100,204248.100,219531.300,0.000
156610.500,184005.500,409808.200,194995.800,238694.400,210473.300,204247.300,219517.100,0.000
156760.300,183975.200,409800.600,195077.500,238327.900,210839.200,204152.700,219430.900,0.000
156854.500,184224.800,409945.600,195127.300,238357.100,211368.800,204131.300,219430.000,0.000
156811.800,184281.900,410005.900,195122.100,238598.500,211321.300,204185.500,219487.000,0.000
156698.300,184139.000,409962.100,195078.300,238698.400,210823.200,204243.000,219522.100,0.000
156614.500,184023.400,409779.000,194985.400,238711.100,210500.300,204242.800,219506.000,0.000
156767.200,183988.000,409786.200,195071.000,238348.600,210855.700,204158.700,219429.700,0.000
156857.000,184221.800,409932.000,195125.200,238358.200,211362.200,204143.100,219432.500,0.000
156801.800,184276.500,409972.400,195106.900,238585.800,211315.000,204188.000,219479.200,0.000
156677.300,184131.700,409912.300,195049.700,238684.300,210821.800,204230.800,219505.700,0.000
156607.800,184024.400,409742.000,194972.800,238715.300,210513.300,204246.800,219509.300,0.000
156756.700,183977.800,409741.800,195056.400,238345.300,210852.200,204156.000,219425.900,0.000
156861.500,184215.000,409897.400,195125.100,238358.000,211356.900,204144.200,219434.500,0.000
156807.100,184260.000,409933.300,195105.000,238570.100,211299.100,204183.100,219476.600,0.000
156681.200,184116.000,409877.200,195047.500,238665.900,210805.700,204221.700,219498.600,0.000
156606.100,184015.000,409712.000,194966.800,238709.000,210494.400,204232.200,219497.100,0.000
156764.500,183981.300,409721.300,195061.600,238352.400,210842.500,204152.500,219426.300,0.000
156859.000,184200.600,409863.300,195118.700,238337.300,211334.800,204130.800,219422.800,0.000
156798.500,184249.900,409896.500,195093.000,238554.000,211288.800,204170.200,219468.100,0.000
156688.700,184129.000,409861.200,195052.000,238678.600,210823.300,204231.600,219513.500,0.000
156611.300,184025.900,409698.400,194973.500,238719.800,210512.600,204246.100,219515.800,0.000
156738.600,183957.500,409678.300,195041.600,238331.400,210823.900,204138.500,219417.000,0.000
156847.700,184195.100,409838.900,195118.300,238333.600,211333.900,204134.100,219433.900,0.000
156799.800,184258.300,409887.300,195103.400,238564.300,211298.000,204181.700,219482.300,0.000
156671.100,184118.400,409832.500,195042.800,238668.300,210810.300,204222.200,219503.600,0.000
156603.300,184031.400,409678.100,194971.000,238728.300,210506.800,204244.300,219515.400,0.000
156756.200,183989.800,409681.800,195064.600,238367.000,210844.200,204164.600,219439.700,0.000
156853.500,184207.300,409823.500,195127.700,238345.300,211333.400,204141.000,219436.600,0.000
156792.200,184256.100,409854.800,195096.100,238556.000,211288.600,204171.500,219470.300,0.000
156683.800,184134.500,409825.100,195055.400,238681.300,210824.000,204230.800,219513.000,0.000
156596.300,184025.300,409650.400,194962.600,238722.400,210499.600,204236.500,219507.500,0.000
156735.300,183961.600,409632.500,195037.100,238343.500,210813.900,204138.600,219414.500,0.000
156855.000,184195.000,409785.200,195116.400,238327.800,211327.500,204132.300,219426.500,0.000
156813.200,184269.000,409842.400,195105.900,238575.000,211308.100,204189.700,219485.100,0.000
156695.600,184134.800,409803.400,195062.600,238689.600,210827.800,204244.400,219521.400,0.000
156586.000,184003.200,409605.500,194949.300,238702.000,210472.800,204225.400,219491.900,0.000
156741.100,183962.600,409604.200,195036.300,238344.300,210808.600,204144.300,219415.900,0.000
156830.000,184169.400,409727.400,195085.900,238305.700,211299.600,204107.600,219399.200,0.000
156785.000,184243.000,409781.200,195070.800,238547.400,211272.500,204156.200,219449.300,0.000
156693.800,184134.000,409771.300,195049.700,238692.000,210818.000,204232.600,219509.400,0.000
156597.400,184017.300,409592.300,194951.800,238725.700,210479.200,204233.400,219499.700,0.000
156751.500,183977.000,409588.600,195040.800,238367.400,210818.600,204157.800,219428.100,0.000
156857.200,184199.900,409729.100,195106.000,238337.800,211329.900,204142.000,219431.000,0.000
156781.200,184244.200,409745.800,195061.200,238536.400,211281.900,204160.200,219451.900,0.000
156657.200,184110.500,409710.500,195008.800,238651.600,210803.300,204208.800,219478.800,0.000
156573.600,184011.900,409552.700,194926.800,238715.200,210478.300,204228.300,219486.400,0.000
156724.600,183967.500,409550.700,195016.200,238364.000,210808.100,204153.500,219419.700,0.000
156809.700,184163.300,409668.400,195064.800,238304.100,211290.100,204113.100,219399.500,0.000
156760.100,184235.100,409708.400,195043.000,238522.900,211272.700,204149.400,219439.900,0.000
156657.400,184117.400,409694.000,195008.300,238655.300,210808.800,204210.400,219484.300,0.000
156570.200,184016.000,409531.900,194923.000,238720.800,210475.400,204222.700,219485.900,0.000
156699.600,183945.100,409502.600,194990.700,238345.000,210777.100,204122.500,219389.800,0.000
156800.800,184154.600,409637.500,195053.900,238295.600,211276.200,204100.100,219383.500,0.000
156753.200,184231.000,409682.800,195033.200,238515.500,211270.500,204141.900,219429.700,0.000
156658.100,184123.800,409679.400,195006.400,238660.200,210820.000,204214.800,219484.800,0.000
156569.500,184016.900,409514.500,194914.900,238722.500,210482.600,204227.200,219483.400,0.000
156717.600,183959.900,409501.500,194994.000,238362.000,210799.100,204143.300,219403.700,0.000
156816.600,184161.100,409629.200,195051.600,238301.500,211294.000,204109.300,219388.800,0.000
156765.000,184235.000,409668.100,195025.300,238521.100,211287.100,204145.000,219428.300,0.000
156660.300,184111.700,409657.700,194992.400,238652.600,210814.600,204205.500,219475.900,0.000
156583.500,184013.100,409509.600,194917.700,238724.000,210474.700,204229.700,219489.500,0.000
156722.500,183950.800,409483.300,194991.200,238353.300,210780.600,204134.600,219403.500,0.000
156808.400,184142.300,409597.200,195039.500,238281.500,211272.400,204090.300,219378.800,0.000
156763.400,184226.500,409644.500,195019.300,238514.900,211274.100,204134.600,219426.400,0.000
156662.700,184107.400,409642.100,194990.900,238657.900,210805.700,204202.800,219477.900,0.000
156575.200,184002.300,409480.000,194906.000,238719.100,210459.600,204221.700,219482.600,0.000
156719.500,183953.300,409456.200,194982.100,238359.100,210779.200,204133.700,219400.400,0.000
156822.800,184169.900,409588.400,195046.900,238308.600,211299.900,204106.000,219392.800,0.000
156775.200,184248.000,409642.300,195030.600,238534.100,211297.000,204152.400,219443.800,0.000
156657.200,184109.500,409617.700,194983.200,238645.100,210810.600,204199.400,219474.700,0.000
156577.500,184016.800,409468.300,194904.500,238722.600,210469.400,204224.200,219486.200,0.000
156711.800,183953.000,409436.200,194976.800,238354.900,210771.200,204131.500,219399.200,0.000
156811.000,184154.800,409560.800,195037.400,238287.800,211275.700,204098.000,219385.300,0.000
156770.000,184245.800,409608.400,195018.900,238520.900,211290.500,204144.600,219433.800,0.000
156674.100,184131.100,409603.200,194994.000,238658.200,210832.900,204215.100,219486.200,0.000
156587.000,184031.400,409446.500,194909.000,238732.200,210485.600,204235.500,219494.200,0.000
156717.800,183961.200,409411.200,194975.100,238361.900,210779.300,204139.800,219402.200,0.000
156820.700,184153.800,409540.100,195041.200,238284.700,211270.900,204104.800,219387.700,0.000
156763.700,184232.300,409575.900,195010.100,238500.500,211272.900,204134.600,219424.600,0.000
156671.800,184126.300,409577.100,194991.300,238646.100,210830.700,204209.200,219484.400,0.000
156586.000,184031.000,409421.800,194906.300,238729.100,210492.600,204231.800,219494.000,0.000
156718.500,183960.000,409392.900,194974.400,238362.900,210778.800,204138.900,219403.800,0.000
156827.500,184155.900,409531.600,195045.500,238290.000,211271.700,204111.900,219394.800,0.000
156785.900,184249.000,409580.900,195024.100,238524.200,211290.300,204154.700,219443.300,0.000
156675.200,184120.300,409558.700,194983.000,238652.500,210831.000,204205.700,219478.200,0.000
156580.800,184014.400,409393.100,194892.400,238722.500,210481.700,204222.600,219482.600,0.000
156716.800,183951.600,409374.300,194965.200,238366.700,210769.900,204138.400,219402.000,0.000
156824.900,184151.000,409512.500,195035.300,238293.800,211271.500,204107.900,219388.900,0.000
156767.700,184234.200,409544.000,195000.700,238510.500,211287.300,204135.100,219420.900,0.000
156684.100,184139.100,409557.600,194992.700,238667.100,210855.500,204217.400,219487.700,0.000
156584.200,184032.700,409399.000,194906.000,238737.100,210493.800,204237.200,219493.500,0.000
156724.200,183976.400,409376.200,194983.400,238386.300,210791.400,204156.700,219416.700,0.000
156817.300,184158.800,409489.300,195034.200,238292.900,211282.800,204105.000,219386.000,0.000
156768.300,184243.600,409526.700,195005.000,238507.800,211299.700,204137.500,219424.900,0.000
156678.700,184132.600,409534.000,194985.500,238656.100,210847.100,204211.800,219483.500,0.000
156584.500,184026.100,409372.600,194894.900,238726.400,210479.800,204227.800,219486.200,0.000
156723.300,183966.800,409340.300,194969.900,238370.800,210771.300,204144.200,219405.700,0.000
156827.900,184165.000,409473.300,195034.500,238303.800,211281.100,204109.300,219391.400,0.000
156776.800,184247.100,409512.200,195009.300,238522.000,211298.100,204141.000,219427.200,0.000
156664.500,184114.300,409497.900,194971.900,238641.400,210827.800,204197.600,219464.700,0.000
156570.800,184016.800,409340.700,194883.500,238718.500,210467.500,204219.000,219472.300,0.000
156705.600,183952.300,409305.700,194953.200,238361.100,210750.000,204130.900,219391.900,0.000
156823.300,184154.000,409443.500,195026.800,238280.900,211263.700,204102.800,219382.700,0.000
156774.700,184247.600,409485.200,194997.200,238503.700,211288.400,204133.400,219420.300,0.000
156665.600,184114.300,409470.200,194960.800,238623.100,210822.300,204187.400,219460.100,0.000
156574.200,184015.600,409317.100,194873.900,238710.700,210463.600,204212.500,219473.000,0.000
156723.200,183963.300,409303.700,194962.900,238378.000,210760.200,204145.600,219411.100,0.000
156832.600,184159.900,409441.000,195038.500,238298.600,211269.100,204115.100,219400.700,0.000
156774.300,184246.400,409472.900,195004.400,238516.300,211294.100,204142.900,219435.800,0.000
156663.200,184116.800,409455.900,194967.100,238637.900,210832.900,204196.900,219473.900,0.000
156574.700,184025.000,409309.600,194888.700,238730.600,210480.000,204228.600,219492.000,0.000
156704.900,183954.000,409275.200,194959.200,238374.000,210754.700,204140.800,219410.000,0.000
156810.500,184141.500,409400.700,195020.700,238278.300,211258.800,204095.800,219385.300,0.000
156773.200,184258.000,409454.100,194997.300,238525.400,211316.400,204137.500,219432.900,0.000
156666.600,184122.700,409452.300,194966.700,238650.700,210842.600,204203.500,219476.700,0.000
156575.900,184015.600,409307.200,194885.200,238727.300,210462.600,204236.800,219491.800,0.000
156719.100,183969.800,409273.500,194957.100,238389.300,210765.000,204160.400,219418.400,0.000
156826.500,184171.800,409390.600,195016.700,238302.800,211297.800,204114.400,219393.900,0.000
156783.900,184272.200,409437.500,194993.800,238535.700,211341.500,204152.000,219438.400,0.000
156657.700,184111.700,409421.300,194949.200,238640.300,210837.700,204197.600,219467.700,0.000
156557.500,183993.400,409261.500,194859.700,238709.000,210441.800,204218.300,219474.900,0.000
156699.200,183942.200,409224.500,194932.400,238365.500,210737.000,204139.500,219403.900,0.000
156831.400,184162.100,409371.900,195015.800,238298.800,211289.100,204118.300,219403.000,0.000
156789.100,184272.300,409422.200,194991.200,238540.600,211345.400,204153.900,219443.700,0.000
156676.700,184125.100,409412.400,194957.100,238652.600,210855.500,204206.300,219480.400,0.000
156589.500,184020.000,409270.600,194877.500,238733.700,210464.800,204238.500,219498.100,0.000
156725.000,183960.100,409224.800,194941.700,238378.300,210747.400,204149.800,219414.800,0.000
156843.200,184172.200,409359.600,195011.100,238296.500,211291.300,204110.200,219397.100,0.000
156787.800,184272.100,409400.200,194978.800,238530.900,211341.200,204137.700,219429.100,0.000
156680.300,184123.100,409396.900,194954.100,238645.500,210856.400,204198.000,219472.200,0.000
156578.700,184007.700,409239.100,194868.700,238720.600,210460.100,204225.800,219485.100,0.000
156699.400,183943.000,409182.100,194926.100,238364.400,210738.100,204137.700,219400.100,0.000
156818.000,184154.500,409323.300,195003.100,238288.000,211284.300,204105.200,219389.500,0.000
156774.400,184263.700,409376.800,194984.000,238534.300,211341.100,204143.600,219437.500,0.000
156661.500,184111.000,409366.200,194954.100,238639.100,210847.600,204195.200,219473.400,0.000
156565.800,184003.100,409214.800,194873.500,238714.900,210456.300,204226.000,219488.800,0.000
156703.700,183952.300,409179.400,194943.300,238381.300,210744.700,204150.400,219416.500,0.000
156811.000,184148.500,409306.800,195005.500,238287.400,211277.800,204103.000,219389.200,0.000
156776.500,184271.300,409368.500,194988.500,238543.200,211353.500,204150.200,219441.000,0.000
156677.900,184128.300,409366.000,194962.400,238654.800,210875.700,204214.400,219484.600,0.000
156573.000,184004.800,409200.800,194863.300,238718.300,210466.200,204232.300,219487.300,0.000
156701.700,183938.300,409151.400,194923.100,238370.700,210734.600,204146.000,219407.200,0.000
156814.000,184135.600,409283.600,194987.200,238276.700,211266.600,204099.000,219382.000,0.000
156769.900,184249.900,409331.200,194958.600,238522.400,211334.100,204131.600,219423.900,0.000
156662.000,184102.900,409317.300,194931.500,238626.800,210855.200,204187.500,219463.800,0.000
156564.500,183996.300,409166.400,194851.900,238708.800,210462.700,204221.500,219486.100,0.000
156687.300,183929.600,409121.800,194914.300,238366.300,210723.600,204138.400,219407.200,0.000
156809.500,184127.100,409266.100,194992.400,238271.900,211248.800,204099.500,219389.800,0.000
156774.900,184250.400,409324.800,194973.700,238523.300,211324.800,204141.100,219435.200,0.000
156666.200,184104.700,409306.900,194940.600,238627.200,210855.500,204196.500,219471.300,0.000
156563.300,184000.100,409140.700,194844.500,238714.900,210478.000,204223.400,219482.300,0.000
156691.300,183931.100,409101.100,194904.900,238380.300,210730.000,204143.300,219402.000,0.000
156813.700,184113.200,409260.600,194987.500,238276.600,211226.000,204107.400,219382.700,0.000
156775.400,184237.200,409316.900,194966.700,238519.200,211302.900,204149.100,219428.300,0.000
156676.100,184121.500,409295.900,194939.500,238635.600,210878.700,204213.400,219475.600,0.000
156567.300,184029.700,409130.900,194841.900,238728.400,210511.300,204235.600,219488.100,0.000
156677.100,183939.400,409081.600,194898.400,238379.500,210736.600,204142.800,219404.200,0.000
156791.700,184112.800,409236.200,194987.500,238267.500,211225.600,204102.800,219386.900,0.000
156760.600,184240.300,409295.000,194978.900,238514.300,211308.800,204147.800,219441.600,0.000
156653.900,184108.500,409261.500,194941.500,238617.800,210871.900,204197.000,219476.200,0.000
156557.200,184016.000,409102.300,194847.900,238714.000,210504.800,204222.000,219491.600,0.000
156683.000,183933.000,409065.900,194907.600,238377.200,210732.000,204138.600,219411.300,0.000
156811.700,184115.300,409233.500,194994.900,238273.900,211228.400,204103.300,219392.700,0.000
156770.600,184231.100,409287.000,194969.700,238512.700,211298.100,204137.200,219434.500,0.000
156658.800,184094.600,409243.100,194926.100,238607.500,210858.200,204182.200,219462.800,0.000
156571.100,184023.700,409093.800,194844.800,238718.900,210508.100,204225.200,219491.300,0.000
156691.500,183945.600,409055.200,194904.900,238384.400,210740.400,204149.100,219413.000,0.000
156806.100,184116.600,409211.800,194984.400,238275.900,211234.800,204108.900,219389.600,0.000
156767.800,184234.700,409265.800,194965.500,238520.700,211306.200,204147.200,219434.800,0.000
156653.900,184094.000,409218.600,194920.500,238612.500,210865.200,204190.300,219463.600,0.000
156558.200,184010.000,409058.900,194831.700,238714.900,210506.700,204224.300,219487.700,0.000
156680.100,183924.500,409023.300,194890.100,238383.400,210728.800,204141.700,219409.600,0.000
156808.200,184092.900,409190.600,194978.400,238268.600,211216.900,204099.100,219386.000,0.000
156773.200,184219.600,409250.500,194958.500,238518.300,211301.600,204136.800,219434.800,0.000
156658.900,184080.100,409200.300,194913.600,238607.400,210861.500,204179.300,219461.300,0.000
156558.000,183991.400,409033.700,194819.700,238698.000,210490.200,204208.500,219476.800,0.000
156671.700,183909.100,408994.300,194876.700,238368.000,210707.100,204126.200,219398.900,0.000
156805.200,184100.900,409175.300,194977.600,238267.500,211215.300,204098.700,219388.500,0.000
156761.800,184226.700,409225.900,194951.300,238505.700,211299.300,204127.400,219424.800,0.000
156652.400,184095.300,409186.500,194916.700,238610.200,210871.600,204181.300,219462.300,0.000
156555.400,184013.000,409028.000,194832.600,238711.600,210509.100,204221.700,219487.100,0.000
156655.300,183916.100,408971.100,194875.400,238363.700,210712.600,204126.200,219395.900,0.000
156784.600,184094.200,409141.400,194965.900,238251.400,211212.500,204085.800,219376.000,0.000
156759.000,184234.500,409208.100,194952.900,238510.200,211312.000,204130.800,219428.300,0.000
156659.300,184101.700,409173.000,194920.000,238605.000,210880.000,204183.500,219464.300,0.000
156558.300,184008.600,409009.000,194826.600,238692.800,210499.200,204208.900,219477.500,0.000
156676.200,183930.500,408968.900,194882.000,238363.600,210712.200,204123.100,219395.400,0.000
156806.300,184112.000,409142.700,194971.900,238253.800,211213.400,204083.800,219375.600,0.000
156791.200,184267.100,409226.600,194968.700,238528.800,211331.600,204141.400,219439.400,0.000
156680.500,184123.200,409180.600,194928.600,238620.000,210891.000,204190.300,219470.300,0.000
156557.300,184004.500,408992.600,194815.000,238690.400,210486.000,204203.000,219467.200,0.000
156683.600,183929.300,408959.300,194880.700,238374.500,210704.700,204130.800,219398.800,0.000
156810.400,184106.200,409127.500,194967.700,238261.700,211206.000,204088.200,219375.500,0.000
156774.300,184241.800,409186.500,194945.800,238518.700,211310.600,204125.300,219423.300,0.000
156663.300,184095.900,409140.600,194908.300,238605.200,210871.400,204172.700,219457.000,0.000
156566.900,184010.100,408980.700,194819.300,238700.000,210495.500,204214.000,219482.600,0.000
156688.900,183939.000,408944.600,194879.800,238385.400,210715.000,204143.000,219411.500,0.000
156819.700,184118.200,409122.200,194975.100,238277.200,211225.600,204107.300,219394.800,0.000
156793.700,184267.300,409197.300,194964.700,238549.300,211347.600,204156.900,219451.000,0.000
156682.600,184118.800,409150.800,194924.900,238627.500,210904.200,204201.400,219480.400,0.000
156565.800,184010.200,408971.600,194821.300,238702.900,210501.000,204221.200,219486.800,0.000
156688.500,183942.300,408934.900,194885.100,238394.600,210721.800,204152.600,219420.300,0.000
156808.600,184110.600,409096.900,194970.300,238269.500,211218.200,204102.000,219389.500,0.000
156766.700,184245.700,409151.600,194942.900,238519.700,211319.500,204127.200,219423.400,0.000
156660.500,184104.400,409109.300,194907.900,238605.900,210879.000,204171.000,219454.400,0.000
156558.200,184014.100,408949.200,194818.700,238697.800,210493.000,204209.000,219478.300,0.000
156669.300,183932.400,408903.700,194865.500,238376.700,210697.100,204128.200,219397.400,0.000
156808.800,184116.200,409087.400,194964.400,238267.400,211216.000,204096.800,219382.200,0.000
156782.600,184266.200,409158.300,194951.100,238533.500,211342.300,204138.800,219435.400,0.000
156663.700,184108.600,409105.500,194905.000,238607.800,210891.800,204174.200,219455.400,0.000
156541.200,183991.900,408922.200,194795.600,238680.000,210478.400,204192.700,219459.100,0.000
156662.100,183919.500,408883.800,194856.900,238374.300,210688.700,204126.000,219393.600,0.000
156810.300,184110.700,409074.800,194965.600,238271.600,211218.900,204102.500,219387.700,0.000
156770.000,184248.400,409132.700,194935.900,238525.800,211333.600,204132.300,219427.000,0.000
156669.400,184107.700,409095.900,194905.500,238616.300,210901.500,204185.100,219464.600,0.000
156554.600,184001.500,408920.500,194802.900,238695.000,210497.400,204209.700,219473.400,0.000
156664.100,183916.800,408868.700,194852.100,238374.800,210693.000,204131.400,219397.800,0.000
156799.700,184089.300,409043.600,194946.500,238254.500,211204.600,204088.900,219374.000,0.000
156772.400,184241.000,409114.200,194927.700,238521.500,211337.800,204127.100,219422.700,0.000
156674.500,184101.400,409078.300,194899.700,238609.800,210906.900,204181.800,219456.700,0.000
156553.500,183987.100,408896.100,194791.900,238681.500,210489.300,204199.600,219458.700,0.000
156667.300,183911.800,408848.900,194848.000,238372.200,210689.200,204128.000,219389.700,0.000
156796.300,184083.700,409022.300,194943.100,238247.100,211200.200,204086.200,219364.600,0.000
156759.200,184231.500,409086.100,194922.200,238510.000,211328.000,204119.900,219407.800,0.000
156647.200,184084.900,409041.200,194883.400,238594.300,210891.000,204168.400,219439.400,0.000
156531.000,183982.400,408869.300,194785.000,238680.100,210485.000,204200.900,219456.300,0.000
156640.300,183904.300,408819.200,194840.000,238370.300,210676.500,204126.300,219385.600,0.000
156794.600,184098.000,409019.200,194958.000,238265.900,211212.900,204100.900,219381.800,0.000
156769.700,184257.200,409095.800,194944.000,238537.000,211351.800,204141.100,219429.800,0.000
156662.400,184106.000,409051.100,194909.600,238613.900,210910.800,204184.000,219457.200,0.000
156543.800,183996.700,408873.300,194807.400,238687.800,210494.700,204204.400,219465.500,0.000
156645.100,183910.200,408813.300,194846.700,238369.700,210674.000,204117.800,219382.000,0.000
156792.000,184089.700,408998.800,194951.400,238254.200,211196.300,204083.100,219365.800,0.000
156758.200,184237.300,409064.200,194925.700,238516.200,211330.900,204116.000,219408.800,0.000
156636.100,184071.900,409007.400,194874.500,238584.100,210881.200,204150.700,219426.500,0.000
156515.300,183958.800,408829.000,194765.800,238657.300,210458.800,204171.400,219433.800,0.000
156661.000,183916.700,408812.200,194849.000,238387.500,210680.800,204131.200,219395.300,0.000
156791.500,184081.000,408981.400,194938.500,238250.300,211194.100,204079.400,219361.300,0.000
156761.200,184238.200,409053.500,194919.100,238520.000,211339.600,204118.500,219408.700,0.000
156653.700,184087.700,409009.100,194883.900,238598.200,210900.600,204165.600,219439.700,0.000
156535.500,183976.700,408829.600,194778.800,238667.800,210479.400,204189.500,219450.700,0.000
156640.200,183896.900,408771.500,194824.500,238363.300,210664.400,204114.500,219377.400,0.000
156794.300,184083.400,408963.000,194934.100,238248.600,211199.800,204087.900,219366.800,0.000
156764.100,184237.900,409032.600,194908.500,238508.000,211338.300,204118.200,219408.000,0.000
156664.300,184088.900,408995.600,194880.600,238589.000,210897.500,204165.000,219440.400,0.000
156553.300,183979.800,408827.800,194786.100,238672.300,210473.900,204194.800,219460.000,0.000
156656.500,183899.300,408769.900,194830.700,238368.800,210650.200,204118.500,219386.900,0.000
156784.200,184065.000,408935.600,194923.000,238231.400,211167.400,204068.800,219354.100,0.000
156751.900,184230.100,409005.600,194905.300,238503.100,211321.800,204105.800,219401.500,0.000
156633.100,184070.000,408953.200,194865.200,238568.200,210872.300,204145.000,219423.000,0.000
156520.300,183971.000,408787.000,194771.900,238656.800,210456.500,204183.500,219443.900,0.000
156632.400,183904.200,408736.800,194822.700,238367.600,210644.500,204118.600,219378.400,0.000
156777.700,184080.800,408919.700,194926.800,238239.000,211173.300,204074.800,219355.500,0.000
156753.200,184245.500,408999.300,194911.700,238513.300,211333.000,204113.300,219404.600,0.000
156645.800,184088.600,408955.000,194878.700,238589.500,210892.800,204161.600,219435.200,0.000
156515.700,183967.900,408765.900,194764.000,238656.600,210453.200,204180.600,219440.300,0.000
156627.400,183895.100,408712.800,194813.400,238369.200,210638.800,204120.800,219380.200,0.000
156783.500,184075.200,408897.300,194927.000,238246.700,211180.900,204090.600,219368.800,0.000
156748.600,184231.000,408961.800,194900.600,238510.200,211332.100,204116.000,219409.600,0.000
156639.800,184072.600,408918.300,194864.700,238581.500,210886.300,204158.000,219438.600,0.000
156529.200,183965.700,408752.900,194766.800,238661.900,210455.600,204189.900,219455.300,0.000
156637.900,183887.500,408697.400,194814.100,238365.200,210626.600,204121.400,219387.100,0.000
156784.900,184062.900,408879.700,194914.500,238228.800,211157.700,204073.000,219357.000,0.000
156754.200,184232.400,408952.900,194889.000,238499.200,211323.000,204103.400,219397.400,0.000
156635.300,184068.200,408898.600,194844.000,238564.600,210872.500,204139.700,219413.400,0.000
156531.600,183972.800,408742.200,194758.300,238666.000,210457.600,204187.400,219441.100,0.000
156638.100,183897.100,408679.300,194805.600,238381.000,210632.800,204122.100,219375.300,0.000
156784.800,184069.300,408857.300,194911.200,238241.300,211165.800,204078.400,219351.900,0.000
156757.300,184240.400,408937.100,194892.000,238510.900,211335.000,204111.300,219396.500,0.000
156651.200,184083.200,408901.900,194864.200,238588.300,210894.600,204155.200,219425.500,0.000
156529.800,183970.200,408731.500,194765.100,238663.200,210458.200,204187.200,219444.200,0.000
156614.600,183878.100,408653.100,194791.600,238358.000,210612.500,204106.100,219366.800,0.000
156767.000,184060.000,408837.900,194901.800,238225.800,211154.300,204067.200,219348.500,0.000
156749.600,184243.900,408922.600,194887.700,238509.000,211339.200,204108.500,219401.300,0.000
156640.500,184085.200,408878.700,194853.800,238581.300,210895.300,204151.500,219427.100,0.000
156511.800,183962.300,408702.300,194747.100,238654.300,210445.900,204179.500,219436.500,0.000
156627.600,183898.000,408649.500,194799.300,238378.400,210625.800,204125.700,219382.200,0.000
156781.800,184075.800,408832.800,194907.100,238243.000,211176.300,204084.700,219359.800,0.000
156760.100,184255.700,408917.000,194890.100,238526.100,211365.100,204118.600,219407.600,0.000
156660.900,184100.400,408891.300,194868.600,238610.500,210922.800,204170.000,219442.800,0.000
156526.100,183968.400,408705.600,194756.300,238669.200,210455.500,204190.400,219443.500,0.000
156621.200,183889.900,408626.800,194788.200,238375.900,210614.200,204117.100,219368.600,0.000
156776.000,184069.000,408807.400,194895.200,238237.300,211169.500,204076.200,219345.400,0.000
156750.000,184244.400,408883.700,194871.500,238510.400,211351.900,204101.800,219384.500,0.000
156647.800,184084.600,408854.400,194850.100,238589.600,210906.700,204148.300,219420.200,0.000
156528.600,183965.800,408687.800,194754.400,238666.800,210453.700,204186.200,219439.300,0.000
156623.300,183883.000,408611.500,194786.600,238374.600,210607.900,204116.900,219372.200,0.000
156766.800,184050.400,408784.200,194885.600,238225.900,211151.800,204068.800,219342.900,0.000
156739.600,184231.700,408863.800,194865.600,238502.300,211343.000,204098.300,219388.900,0.000
156635.800,184072.600,408830.500,194841.000,238577.000,210898.500,204143.300,219420.900,0.000
156515.300,183955.000,408664.900,194743.200,238652.100,210442.900,204177.600,219439.500,0.000
156604.400,183871.200,408584.800,194770.200,238359.500,210591.000,204101.900,219364.000,0.000
156760.100,184048.700,408768.500,194880.800,238220.300,211143.400,204060.300,219341.400,0.000
156743.700,184238.900,408858.800,194868.300,238508.800,211347.000,204098.100,219392.200,0.000
156650.100,184089.800,408837.100,194853.000,238594.500,210914.300,204155.100,219431.900,0.000
156526.400,183967.500,408666.500,194753.900,238671.100,210456.700,204187.500,219448.800,0.000
156612.100,183875.600,408578.000,194780.400,238379.700,210599.000,204111.000,219373.200,0.000
156770.600,184049.300,408759.600,194891.700,238231.700,211150.200,204067.100,219347.300,0.000
156741.300,184227.600,408838.400,194867.200,238499.700,211343.800,204090.800,219384.800,0.000
156638.800,184068.900,408809.000,194842.300,238577.300,210905.600,204138.300,219417.600,0.000
156525.800,183960.900,408648.500,194746.700,238660.900,210454.500,204179.500,219442.700,0.000
156629.200,183890.600,408581.200,194783.900,238390.000,210607.800,204123.700,219381.800,0.000
156780.800,184055.300,408754.800,194886.100,238232.000,211148.800,204071.400,219347.300,0.000
156748.700,184229.900,408827.600,194854.900,238497.600,211341.300,204091.600,219382.700,0.000
156649.900,184080.800,408804.700,194833.900,238583.400,210911.300,204142.400,219418.100,0.000
156529.600,183969.600,408644.200,194742.400,238668.000,210461.600,204184.200,219440.800,0.000
156620.600,183887.500,408564.500,194775.300,238390.200,210602.900,204119.500,219377.100,0.000
156760.700,184040.500,408730.000,194874.000,238224.200,211139.300,204066.000,219342.400,0.000
156741.100,184234.700,408815.100,194859.500,238503.300,211351.800,204102.100,219392.700,0.000
156633.700,184073.500,408780.200,194829.700,238578.400,210914.300,204144.200,219420.000,0.000
156506.100,183952.900,408609.500,194724.200,238655.900,210453.200,204174.000,219433.000,0.000
156598.800,183868.800,408532.300,194756.700,238386.800,210588.200,204112.000,219370.400,0.000
156756.100,184031.100,408712.700,194870.700,238228.900,211131.300,204070.400,219348.400,0.000
156726.800,184212.700,408791.900,194845.600,238495.600,211335.800,204096.000,219386.800,0.000
156627.900,184063.000,408766.400,194826.000,238577.900,210913.600,204145.900,219420.600,0.000
156502.300,183946.900,408594.800,194723.800,238659.300,210456.100,204175.400,219435.800,0.000
156597.900,183872.000,408521.900,194759.900,238395.500,210595.500,204118.300,219376.100,0.000
156748.500,184026.800,408695.700,194864.100,238221.400,211129.100,204064.900,219339.800,0.000
156734.100,184220.500,408784.000,194846.700,238491.900,211342.500,204095.400,219384.500,0.000
156642.400,184076.500,408761.500,194826.200,238579.300,210924.800,204146.400,219420.700,0.000
156517.600,183959.100,408593.900,194722.400,238661.600,210463.700,204178.400,219433.700,0.000
156595.700,183863.000,408501.300,194743.000,238378.600,210576.100,204105.000,219359.400,0.000
156759.300,184027.800,408685.200,194861.300,238213.700,211119.900,204063.700,219335.700,0.000
156734.400,184217.600,408761.800,194836.800,238479.900,211330.600,204087.900,219374.600,0.000
156637.800,184073.100,408734.100,194813.600,238567.400,210913.400,204138.400,219408.300,0.000
156514.000,183963.800,408571.700,194714.600,238660.200,210464.000,204179.000,219432.100,0.000
156588.200,183866.700,408472.600,194727.800,238377.000,210574.400,204103.600,219361.500,0.000
156752.300,184029.200,408656.400,194845.500,238211.300,211120.500,204061.900,219339.900,0.000
156734.800,184225.400,408745.300,194830.700,238487.200,211342.600,204092.500,219386.100,0.000
156633.500,184074.800,408714.400,194805.200,238566.600,210922.400,204135.400,219413.900,0.000
156510.600,183962.800,408555.400,194708.900,238655.300,210465.000,204173.900,219435.500,0.000
156582.000,183861.300,408459.700,194726.000,238376.300,210569.300,204102.100,219364.000,0.000
156750.300,184022.300,408644.200,194848.900,238205.900,211115.200,204061.100,219339.100,0.000
156741.700,184231.700,408738.200,194839.200,238488.700,211352.600,204099.300,219389.000,0.000
156633.300,184078.400,408703.600,194807.400,238569.200,210930.300,204140.700,219415.300,0.000
156502.500,183958.600,408538.300,194701.100,238650.800,210463.900,204170.800,219430.100,0.000
156587.700,183871.800,408453.800,194723.000,238389.200,210574.600,204106.700,219363.900,0.000
156756.500,184026.900,408635.900,194841.800,238213.800,211114.700,204061.200,219334.800,0.000
156748.400,184232.000,408731.200,194834.900,238485.800,211347.500,204094.700,219386.000,0.000
156639.000,184073.900,408697.500,194799.800,238561.300,210919.800,204132.700,219404.800,0.000
156511.300,183952.500,408528.800,194694.800,238646.600,210451.800,204164.900,219419.200,0.000
156591.100,183858.600,408432.600,194717.300,238380.800,210556.800,204101.000,219356.400,0.000
156756.000,184015.000,408611.200,194835.200,238201.400,211101.900,204059.300,219332.400,0.000
156739.700,184219.800,408705.300,194817.700,238474.300,211335.300,204089.400,219376.600,0.000
156630.100,184064.200,408672.200,194785.500,238555.600,210912.500,204126.400,219400.700,0.000
156501.900,183944.600,408507.000,194685.600,238637.400,210444.600,204160.100,219420.300,0.000
156577.500,183848.900,408413.400,194709.800,238372.700,210545.800,204096.700,219358.800,0.000
156734.700,183994.600,408583.100,194824.800,238181.700,211082.500,204041.800,219324.400,0.000
156720.100,184205.000,408678.100,194811.500,238460.800,211325.800,204073.000,219373.200,0.000
156617.300,184056.600,408654.400,194788.200,238548.900,210912.700,204119.700,219406.600,0.000
156480.400,183929.800,408483.200,194678.300,238627.400,210435.600,204147.300,219415.400,0.000
156565.400,183847.900,408398.700,194703.400,238377.900,210543.500,204094.100,219357.300,0.000
156733.400,183998.800,408576.100,194818.700,238193.100,211086.200,204044.800,219326.000,0.000
156725.100,184208.600,408670.200,194803.100,238466.800,211329.800,204073.100,219369.200,0.000
156623.400,184059.600,408645.000,194776.900,238551.900,210914.700,204117.700,219397.500,0.000
156489.400,183936.900,408482.900,194674.200,238634.500,210441.900,204152.000,219413.500,0.000
156567.700,183850.400,408389.500,194698.800,238382.500,210545.700,204096.900,219355.500,0.000
156718.500,183988.000,408550.400,194804.700,238183.400,211080.300,204038.500,219313.200,0.000
156713.900,184203.700,408650.400,194800.900,238463.900,211336.900,204076.300,219367.700,0.000
156606.200,184049.400,408621.500,194772.300,238547.000,210919.000,204116.300,219395.000,0.000
156478.800,183931.000,408462.300,194674.100,238636.600,210446.700,204154.700,219416.900,0.000
156566.700,183847.600,408373.400,194703.600,238388.000,210545.900,204103.800,219365.000,0.000
156724.500,183982.800,408534.300,194809.900,238182.300,211073.300,204038.500,219320.300,0.000
156715.800,184190.300,408624.300,194788.900,238451.800,211317.500,204060.800,219358.800,0.000
156634.600,184059.700,408617.000,194780.300,238554.500,210924.300,204121.300,219398.800,0.000
156509.900,183947.400,408468.400,194688.400,238652.400,210461.600,204165.700,219425.300,0.000
156564.800,183840.100,408353.300,194689.000,238386.800,210534.100,204089.300,219346.400,0.000
156729.700,183988.500,408526.700,194807.400,238192.100,211073.800,204040.000,219314.100,0.000
156719.600,184200.800,408621.800,194793.500,238459.100,211326.500,204067.200,219357.000,0.000
156621.200,184060.500,408602.800,194770.700,238550.300,210926.900,204114.700,219386.800,0.000
156488.400,183943.100,408440.400,194671.600,238639.200,210457.800,204150.700,219406.000,0.000
156558.000,183847.700,408336.000,194683.800,238382.100,210534.900,204085.800,219340.000,0.000
156735.800,183996.900,408520.300,194812.300,238192.600,211077.600,204044.300,219315.900,0.000
156724.300,184205.900,408613.700,194798.800,238460.800,211331.000,204071.900,219361.300,0.000
156621.200,184062.300,408590.600,194775.300,238552.200,210931.700,204115.700,219396.400,0.000
156490.400,183946.100,408433.300,194675.200,238649.000,210466.600,204157.100,219418.500,0.000
156563.500,183853.300,408334.900,194695.600,238399.200,210545.000,204100.300,219362.200,0.000
156719.700,183979.500,408497.200,194804.700,238185.900,211069.400,204040.100,219318.400,0.000
156710.800,184190.700,408590.600,194788.100,238451.900,211326.000,204065.800,219360.100,0.000
156620.200,184058.500,408573.900,194768.600,238548.900,210932.800,204114.700,219394.000,0.000
156481.400,183930.600,408404.900,194659.000,238628.000,210451.800,204141.800,219405.700,0.000
156543.500,183824.800,408297.200,194668.800,238378.500,210517.000,204077.200,219340.500,0.000
156715.100,183962.100,408470.200,194794.900,238167.100,211050.600,204026.100,219306.700,0.000
156718.400,184191.400,408579.700,194793.900,238443.700,211324.100,204065.900,219361.100,0.000
156628.400,184062.700,408570.200,194778.600,238553.400,210938.600,204120.500,219403.000,0.000
156495.700,183945.300,408415.200,194677.400,238654.000,210466.400,204155.900,219423.200,0.000
156545.000,183829.300,408293.100,194669.000,238388.000,210514.300,204081.200,219345.200,0.000
156710.600,183959.600,408462.300,194786.800,238174.900,211042.600,204025.700,219309.000,0.000
156709.300,184181.200,408564.100,194781.300,238444.800,211313.200,204055.600,219355.900,0.000
156609.800,184041.500,408543.900,194758.500,238544.400,210925.500,204102.300,219388.600,0.000
156492.100,183942.400,408406.900,194673.900,238660.000,210472.900,204158.200,219426.100,0.000
156549.400,183839.000,408291.400,194673.300,238411.900,210532.700,204095.300,219358.600,0.000
156710.900,183962.500,408448.600,194784.900,238182.800,211053.100,204030.700,219312.600,0.000
156706.300,184184.800,408550.900,194775.000,238446.800,211327.300,204057.500,219356.800,0.000
156608.800,184048.400,408534.300,194752.900,238544.900,210941.300,204105.500,219386.700,0.000
156494.900,183946.800,408395.500,194670.400,238656.400,210480.100,204160.500,219422.800,0.000
156549.900,183840.300,408281.500,194671.500,238409.300,210528.300,204094.100,219356.300,0.000
156710.800,183963.500,408447.100,194786.800,238190.100,211056.300,204035.300,219315.000,0.000
156704.800,184184.500,408547.700,194774.400,238453.100,211328.800,204061.300,219356.500,0.000
156602.900,184040.200,408521.600,194747.900,238541.700,210930.400,204099.200,219383.300,0.000
156486.400,183933.600,408379.600,194660.700,238644.600,210465.300,204150.200,219417.200,0.000
156549.200,183840.700,408272.700,194666.800,238407.400,210517.600,204091.600,219356.800,0.000
156703.000,183953.800,408426.000,194775.400,238176.100,211039.700,204025.500,219308.500,0.000
156700.900,184179.500,408528.000,194766.500,238441.600,211323.600,204055.300,219354.600,0.000
156605.800,184041.800,408511.500,194747.400,238540.900,210935.500,204101.800,219387.600,0.000
156484.800,183931.700,408370.000,194661.200,238646.800,210467.300,204151.600,219418.000,0.000
156550.500,183839.200,408261.600,194667.700,238414.400,210522.200,204097.600,219358.700,0.000
156705.300,183950.800,408406.700,194769.000,238172.800,211040.500,204022.200,219302.600,0.000
156709.100,184182.500,408514.400,194763.800,238444.200,211333.500,204057.000,219352.300,0.000
156607.600,184039.300,408492.100,194739.000,238534.100,210938.800,204099.500,219377.400,0.000
156477.200,183920.700,408342.000,194646.300,238626.700,210454.900,204140.700,219399.300,0.000
156532.500,183818.200,408229.100,194649.700,238392.300,210498.400,204080.300,219336.500,0.000
156709.700,183954.200,408402.400,194776.200,238180.000,211042.600,204030.000,219304.200,0.000
156709.000,184179.500,408503.600,194766.800,238440.900,211329.000,204057.500,219346.900,0.000
156601.600,184027.200,408474.300,194732.100,238523.200,210924.800,204089.200,219368.500,0.000
156480.500,183914.500,408333.100,194642.200,238626.900,210448.700,204137.200,219398.300,0.000
156532.700,183811.700,408214.400,194640.900,238391.600,210490.300,204076.400,219334.200,0.000
156708.500,183948.500,408382.600,194766.500,238172.300,211039.300,204024.900,219299.200,0.000
156716.000,184189.400,408497.000,194767.500,238451.000,211344.500,204063.000,219355.000,0.000
156596.700,184029.400,408459.900,194726.500,238522.300,210930.400,204087.300,219364.900,0.000
156468.100,183914.500,408319.800,194636.400,238621.900,210452.600,204133.200,219394.800,0.000
156523.000,183816.200,408205.100,194641.600,238395.900,210495.000,204076.400,219338.000,0.000
156697.400,183946.600,408367.700,194768.100,238172.900,211038.800,204024.100,219301.400,0.000
156702.400,184181.200,408479.300,194766.700,238443.500,211339.700,204056.400,219349.100,0.000
156597.400,184026.900,408451.900,194737.400,238524.900,210935.900,204091.400,219369.300,0.000
156467.000,183907.100,408299.900,194639.100,238619.600,210448.200,204131.500,219391.100,0.000
156518.600,183802.500,408174.900,194635.500,238382.100,210477.700,204069.700,219329.800,0.000
156688.500,183923.000,408338.000,194754.400,238151.900,211012.500,204009.800,219290.100,0.000
156693.100,184157.800,408448.100,194747.800,238413.600,211312.800,204037.100,219336.300,0.000
156604.800,184032.300,408446.200,194737.900,238525.400,210939.500,204093.000,219378.200,0.000
156474.600,183915.400,408303.300,194645.100,238629.700,210457.700,204138.400,219403.200,0.000
156517.500,183803.200,408174.400,194636.000,238392.500,210477.800,204074.100,219334.300,0.000
156691.900,183925.600,408334.800,194760.000,238156.900,211012.500,204014.500,219291.500,0.000
156694.600,184162.600,408441.500,194752.300,238421.700,211319.000,204041.400,219336.700,0.000
156586.500,184012.600,408412.600,194717.900,238507.300,210927.100,204073.900,219355.700,0.000
156454.400,183890.000,408264.900,194620.000,238599.700,210438.600,204113.500,219376.600,0.000
156515.100,183797.600,408154.400,194628.500,238383.800,210473.300,204069.500,219327.400,0.000
156686.000,183918.300,408318.000,194747.200,238148.800,211008.000,204009.900,219283.200,0.000
156694.000,184161.000,408437.800,194746.600,238416.100,211320.400,204042.400,219335.200,0.000
156596.200,184025.600,408423.000,194726.100,238511.900,210941.100,204087.400,219368.700,0.000
156457.700,183901.100,408270.800,194625.900,238609.400,210452.600,204125.300,219389.500,0.000
156502.400,183797.900,408142.200,194619.500,238387.700,210471.300,204068.400,219330.400,0.000
156682.800,183926.800,408309.000,194751.400,238157.000,211013.400,204015.800,219297.100,0.000
156689.000,184163.400,408418.300,194748.000,238417.600,211322.500,204039.000,219340.600,0.000
156589.900,184025.100,408398.800,194717.100,238519.100,210940.000,204078.200,219362.400,0.000
156468.800,183911.400,408261.400,194631.200,238620.200,210458.500,204125.500,219391.600,0.000
156520.900,183811.700,408144.300,194634.800,238405.000,210479.300,204075.900,219339.300,0.000
156687.300,183925.900,408300.600,194752.800,238159.500,211004.600,204010.700,219289.900,0.000
156689.800,184162.600,408408.800,194745.000,238414.100,211313.700,204031.700,219327.800,0.000
156597.200,184029.500,408396.400,194723.100,238518.300,210939.800,204076.400,219360.400,0.000
156465.500,183907.300,408248.700,194627.200,238611.200,210449.400,204119.300,219386.500,0.000
156511.900,183809.000,408125.300,194621.900,238398.200,210468.500,204069.000,219333.600,0.000
156687.300,183928.100,408282.500,194741.700,238156.200,211004.900,204010.100,219288.300,0.000
156695.900,184168.500,408397.200,194737.400,238413.800,211323.800,204036.200,219328.800,0.000
156600.800,184030.100,408386.300,194716.400,238515.600,210944.200,204079.100,219356.900,0.000
156459.000,183896.700,408230.200,194612.100,238600.700,210442.800,204109.900,219372.500,0.000
156502.500,183794.200,408103.000,194605.600,238387.900,210455.900,204056.700,219314.400,0.000
156671.300,183903.500,408251.900,194725.600,238136.100,210986.200,203990.500,219262.500,0.000
156677.300,184140.200,408359.700,194720.500,238386.400,211304.500,204014.200,219306.600,0.000
156581.800,184007.300,408347.400,194697.000,238486.200,210931.700,204059.500,219339.800,0.000
156450.900,183892.100,408207.600,194603.800,238593.000,210446.300,204106.300,219369.700,0.000
156492.200,183788.800,408079.900,194598.200,238375.600,210449.400,204051.800,219313.400,0.000
156662.900,183898.100,408232.900,194716.700,238123.700,210977.500,203984.300,219263.600,0.000
156678.200,184145.600,408354.800,194721.100,238392.500,211305.000,204015.400,219313.800,0.000
156614.300,184041.700,408376.900,194732.300,238525.500,210957.100,204090.100,219375.600,0.000
156468.400,183912.000,408224.500,194624.600,238614.000,210456.300,204121.900,219388.200,0.000
156490.100,183795.400,408079.500,194598.700,238389.600,210446.500,204057.000,219315.900,0.000
156661.200,183904.100,408231.000,194719.800,238141.500,210981.900,203995.300,219269.400,0.000
156684.100,184160.000,408358.700,194731.900,238414.200,211325.100,204034.700,219327.000,0.000
156588.100,184022.400,408344.600,194711.500,238512.200,210949.500,204078.000,219355.500,0.000
156452.900,183894.700,408196.300,194614.800,238606.900,210450.600,204116.500,219376.800,0.000
156486.500,183777.900,408056.700,194595.500,238395.900,210441.900,204056.100,219311.000,0.000
156686.300,183908.600,408229.300,194738.700,238162.400,210992.700,204011.400,219281.800,0.000
156701.500,184156.800,408351.100,194736.900,238423.100,211324.400,204034.900,219323.600,0.000
156594.500,184013.300,408325.400,194700.300,238510.400,210939.900,204063.600,219336.600,0.000
156465.900,183895.500,408187.400,194612.300,238607.100,210449.600,204111.300,219367.300,0.000
156505.000,183792.800,408060.300,194604.700,238405.600,210442.900,204062.400,219314.100,0.000
156684.500,183911.100,408215.300,194729.700,238155.700,210982.600,204003.700,219271.600,0.000
156689.000,184156.600,408323.800,194723.400,238407.800,211317.300,204027.200,219312.900,0.000
156591.900,184030.400,408312.400,194704.200,238513.200,210949.900,204073.900,219348.300,0.000
156441.100,183890.800,408150.100,194597.000,238588.000,210436.000,204099.500,219358.300,0.000
156474.600,183780.300,408013.400,194581.800,238382.100,210421.400,204044.100,219300.800,0.000
156660.000,183893.000,408172.300,194710.600,238130.900,210956.300,203984.900,219257.200,0.000
156674.000,184139.000,408292.700,194709.400,238381.600,211291.000,204005.300,219298.300,0.000
156576.900,183999.900,408281.600,194686.800,238483.600,210916.800,204045.900,219328.000,0.000
156454.700,183885.700,408150.400,194603.500,238588.000,210432.600,204102.200,219365.100,0.000
156478.600,183778.900,408006.800,194580.800,238383.400,210417.600,204049.400,219302.600,0.000
156640.400,183877.300,408144.800,194692.600,238115.800,210940.200,203977.300,219244.000,0.000
156666.000,184140.600,408276.000,194704.500,238383.800,211295.900,204014.300,219297.800,0.000
156569.300,184015.700,408264.100,194682.500,238495.300,210938.300,204059.000,219330.000,0.000
156431.000,183886.400,408118.200,194584.600,238590.600,210438.200,204100.500,219352.300,0.000
156475.600,183786.300,407992.700,194578.800,238400.600,210425.700,204062.300,219309.100,0.000
156654.800,183889.500,408146.800,194701.600,238139.400,210953.700,203998.800,219261.100,0.000
156670.300,184141.800,408268.200,194699.900,238396.000,211300.700,204023.100,219305.800,0.000
156582.700,184021.000,408262.600,194683.300,238509.900,210951.000,204075.000,219346.100,0.000
156451.800,183898.500,408126.200,194594.700,238611.200,210454.700,204121.900,219376.700,0.000
156483.100,183791.300,407986.800,194578.900,238413.500,210429.800,204074.000,219324.600,0.000
156655.700,183884.800,408129.700,194697.400,238147.000,210948.300,204003.000,219271.300,0.000
156673.900,184133.400,408248.700,194699.200,238395.100,211291.500,204024.800,219312.500,0.000
156581.400,184003.900,408236.600,194678.200,238498.900,210931.400,204064.700,219342.100,0.000
156447.000,183879.800,408093.200,194583.400,238590.800,210430.600,204103.400,219364.100,0.000
156468.400,183768.800,407946.000,194556.600,238388.000,210395.700,204046.400,219303.100,0.000
156640.400,183867.300,408093.600,194677.700,238124.900,210921.300,203981.700,219251.000,0.000
156668.100,184134.800,408229.000,194690.800,238388.900,211291.700,204020.800,219307.400,0.000
156568.700,184003.600,408205.800,194658.600,238487.100,210934.200,204056.200,219329.500,0.000
156427.900,183874.000,408056.500,194561.000,238580.000,210436.000,204094.100,219348.600,0.000
156447.200,183759.300,407910.100,194537.300,238379.900,210397.900,204042.000,219290.200,0.000
156624.600,183858.400,408061.800,194660.800,238114.000,210921.700,203979.600,219242.200,0.000
156649.600,184118.800,408186.700,194665.300,238360.700,211281.800,204006.300,219286.800,0.000
156557.500,183999.800,408176.800,194640.700,238472.700,210935.400,204043.800,219312.700,0.000
156438.000,183889.000,408057.000,194567.600,238585.100,210449.900,204102.600,219353.900,0.000
156459.800,183777.000,407918.300,194548.500,238395.700,210407.200,204053.700,219299.600,0.000
156632.000,183864.600,408062.800,194670.600,238119.800,210920.600,203985.200,219245.700,0.000
156661.700,184127.500,408195.600,194686.800,238372.300,211286.200,204018.900,219298.600,0.000
156564.200,184004.700,408181.100,194660.100,238486.200,210941.300,204056.800,219325.300,0.000
156419.700,183869.400,408031.400,194554.800,238573.800,210431.900,204089.900,219341.700,0.000
156448.100,183765.600,407891.900,194533.900,238390.300,210388.300,204043.500,219292.600,0.000
156628.400,183866.300,408042.900,194658.900,238120.600,210908.300,203978.600,219242.500,0.000
156657.900,184131.700,408178.900,194673.600,238372.400,211281.300,204010.900,219294.900,0.000
156568.100,184015.100,408175.000,194655.100,238490.800,210950.200,204058.300,219332.700,0.000
156418.600,183876.200,408026.900,194551.000,238576.300,210443.500,204091.400,219346.100,0.000
156445.000,183776.100,407890.300,194534.400,238406.400,210407.300,204052.500,219301.100,0.000
156623.700,183866.100,408033.600,194660.300,238129.500,210927.000,203987.000,219249.900,0.000
156640.100,184112.800,408153.300,194658.100,238362.500,211280.700,203999.400,219282.800,0.000
156544.100,183985.900,408139.600,194631.200,238471.100,210930.600,204033.300,219307.200,0.000
156420.600,183874.000,408009.200,194544.900,238572.000,210442.200,204082.000,219336.600,0.000
156443.600,183765.200,407863.800,194517.900,238391.300,210388.600,204035.000,219281.700,0.000
156630.500,183858.000,408013.200,194650.900,238117.000,210905.000,203973.500,219238.000,0.000
156668.900,184128.800,408154.000,194672.600,238362.400,211280.600,204008.700,219293.300,0.000
156565.100,184008.700,408137.500,194641.700,238473.100,210942.000,204039.300,219312.600,0.000
156423.400,183879.300,407999.800,194546.000,238566.500,210443.300,204080.500,219335.400,0.000
156443.100,183768.700,407856.800,194524.100,238388.900,210388.600,204036.800,219287.000,0.000
156621.900,183855.300,407999.200,194649.200,238111.700,210899.400,203967.700,219235.100,0.000
156641.800,184109.400,408121.300,194648.300,238352.400,211263.400,203987.500,219272.000,0.000
156548.900,183990.900,408111.200,194626.800,238463.600,210927.200,204029.600,219303.600,0.000
156411.300,183866.000,407974.200,194530.100,238555.400,210426.300,204070.000,219327.200,0.000
156438.200,183766.200,407841.200,194510.300,238392.500,210375.400,204032.500,219285.300,0.000
156623.400,183857.300,407987.100,194639.100,238112.600,210890.900,203965.800,219232.400,0.000
156649.400,184115.700,408116.400,194645.900,238344.600,211259.700,203983.600,219270.000,0.000
156548.700,183995.200,408104.700,194617.700,238454.100,210921.100,204019.800,219296.800,0.000
156420.000,183874.000,407974.100,194528.800,238555.600,210431.200,204069.000,219326.000,0.000
156455.600,183778.300,407840.200,194516.400,238395.800,210381.900,204040.700,219289.700,0.000
156627.900,183852.600,407974.100,194634.100,238102.400,210883.200,203963.700,219229.700,0.000
156656.100,184114.100,408109.500,194650.700,238342.000,211264.300,203991.300,219276.800,0.000
156566.800,184010.800,408108.800,194630.800,238471.300,210949.400,204037.700,219312.100,0.000
156426.800,183883.200,407974.200,194535.100,238564.900,210444.400,204081.200,219337.700,0.000
156441.600,183772.400,407825.800,194507.800,238399.800,210380.100,204041.500,219290.600,0.000
156615.700,183846.000,407956.600,194625.900,238108.200,210882.100,203967.200,219229.000,0.000
156640.900,184107.800,408083.100,194632.000,238336.900,211259.800,203984.200,219265.600,0.000
156561.400,184012.100,408086.600,194621.200,238471.500,210953.600,204035.900,219306.000,0.000
156422.700,183879.600,407952.500,194528.400,238562.800,210448.100,204076.500,219327.000,0.000
156438.400,183768.200,407806.300,194499.900,238397.500,210375.800,204036.400,219280.000,0.000
156613.900,183843.000,407941.300,194620.700,238103.800,210875.300,203964.000,219224.000,0.000
156636.900,184093.600,408064.900,194627.200,238323.700,211248.900,203979.700,219261.100,0.000
156549.700,183986.700,408060.900,194607.200,238450.500,210935.300,204021.600,219292.100,0.000
156411.300,183853.600,407925.900,194513.000,238546.700,210427.600,204059.500,219310.900,0.000
156433.100,183750.900,407786.500,194494.400,238395.500,210362.500,204029.400,219276.100,0.000
156617.400,183836.500,407927.900,194627.500,238110.800,210877.000,203969.600,219230.800,0.000
156632.900,184086.100,408045.900,194628.200,238326.100,211249.300,203977.700,219261.700,0.000
156526.100,183965.800,408020.900,194591.400,238433.100,210921.700,204004.400,219279.200,0.000
156404.500,183854.700,407905.300,194516.700,238546.600,210435.300,204065.100,219321.200,0.000
156422.800,183751.600,407763.900,194492.900,238393.600,210362.200,204034.300,219286.400,0.000
156591.000,183817.000,407887.700,194606.300,238087.200,210852.400,203954.400,219219.100,0.000
156618.500,184076.300,408018.200,194614.200,238307.100,211231.200,203970.300,219255.500,0.000
156534.900,183982.800,408023.100,194593.200,238444.400,210937.000,204018.100,219295.800,0.000
156412.100,183870.700,407907.700,194512.400,238553.700,210449.200,204076.000,219333.800,0.000
156407.800,183745.500,407744.700,194468.500,238382.500,210350.300,204025.300,219276.500,0.000
156594.500,183823.800,407886.200,194603.500,238096.500,210857.100,203962.600,219229.000,0.000
156620.600,184079.700,408015.200,194609.300,238314.100,211239.800,203978.500,219264.600,0.000
156530.700,183983.100,408013.000,194588.100,238451.500,210943.000,204021.400,219297.600,0.000
156401.400,183862.700,407888.000,194506.400,238553.400,210451.200,204075.400,219330.500,0.000
156404.500,183747.100,407729.500,194468.800,238391.700,210356.800,204029.200,219277.700,0.000
156600.200,183835.900,407879.500,194609.900,238111.000,210868.900,203974.100,219237.400,0.000
156633.800,184101.000,408013.600,194624.100,238330.800,211257.300,203994.900,219276.900,0.000
156533.800,183998.600,407997.700,194587.600,238454.100,210951.300,204024.600,219297.500,0.000
156395.200,183866.300,407867.800,194496.000,238550.600,210446.800,204066.400,219322.600,0.000
156391.900,183742.100,407705.900,194452.200,238385.600,210341.400,204019.200,219264.200,0.000
156578.300,183813.100,407842.800,194580.300,238083.000,210842.100,203951.300,219209.300,0.000
156624.600,184088.600,407992.500,194604.500,238315.900,211246.400,203979.600,219260.000,0.000
156544.300,184002.800,407998.900,194591.100,238458.600,210962.400,204031.000,219302.800,0.000
156402.300,183866.400,407866.100,194501.900,238549.900,210458.500,204073.200,219329.500,0.000
156408.400,183752.800,407712.300,194468.600,238398.900,210359.500,204033.100,219285.000,0.000
156582.700,183807.300,407836.000,194584.700,238086.100,210841.200,203951.300,219217.300,0.000
156627.200,184079.200,407984.400,194614.200,238320.100,211247.600,203981.100,219267.300,0.000
156540.300,183989.200,407984.000,194592.800,238454.000,210959.400,204022.400,219299.300,0.000
156421.500,183873.500,407869.800,194515.900,238558.400,210472.600,204078.500,219337.100,0.000
156409.700,183744.200,407700.900,194462.600,238393.800,210352.200,204023.300,219274.000,0.000
156583.200,183801.400,407827.600,194580.900,238084.500,210834.500,203944.600,219209.200,0.000
156616.700,184063.700,407962.400,194594.200,238294.500,211230.400,203961.100,219246.200,0.000
156527.200,183975.700,407957.900,194570.300,238430.500,210944.800,204000.500,219277.000,0.000
156419.000,183877.300,407856.400,194512.800,238554.300,210472.800,204072.700,219331.300,0.000
156412.400,183755.400,407692.300,194469.800,238399.600,210356.100,204029.300,219281.700,0.000
156575.300,183798.400,407806.300,194576.300,238078.400,210828.000,203943.000,219209.000,0.000
156614.100,184063.900,407950.000,194595.400,238295.300,211228.700,203965.300,219250.200,0.000
156537.500,183987.600,407959.400,194583.900,238446.200,210959.700,204020.000,219296.300,0.000
156405.300,183863.900,407836.800,194504.300,238550.700,210468.000,204070.500,219332.600,0.000
156395.000,183738.100,407666.400,194457.800,238399.200,210347.600,204026.400,219281.900,0.000
156578.200,183797.100,407794.800,194587.000,238094.000,210832.200,203957.300,219225.200,0.000
156616.500,184058.500,407935.100,194605.300,238300.200,211231.400,203977.400,219264.800,0.000
156528.000,183979.600,407934.300,194578.100,238443.300,210958.300,204019.600,219295.100,0.000
156387.500,183847.000,407803.100,194483.300,238535.300,210456.300,204057.700,219312.000,0.000
156390.300,183733.800,407648.800,194446.200,238395.100,210342.400,204023.100,219266.600,0.000
156577.700,183795.800,407783.800,194576.200,238082.800,210828.500,203954.000,219209.200,0.000
156610.500,184054.800,407917.200,194587.000,238281.500,211226.900,203963.800,219242.500,0.000
156531.400,183982.600,407923.700,194573.000,238435.800,210967.700,204013.600,219287.000,0.000
156386.600,183846.500,407791.900,194479.300,238527.300,210462.300,204054.800,219310.700,0.000
156395.000,183746.100,407647.800,194450.700,238408.800,210362.000,204039.200,219287.300,0.000
156577.300,183803.700,407769.600,194577.600,238094.200,210851.100,203973.600,219233.000,0.000
156604.600,184056.900,407900.500,194585.200,238286.200,211240.600,203978.400,219260.800,0.000
156501.400,183963.400,407890.100,194548.600,238425.900,210957.600,204003.000,219283.300,0.000
156362.000,183828.700,407763.100,194460.200,238514.700,210457.000,204043.700,219307.800,0.000
156356.000,183712.500,407603.100,194416.000,238379.700,210329.800,204003.800,219261.500,0.000
156533.100,183764.400,407727.400,194540.100,238061.800,210806.500,203928.200,219199.200,0.000
156568.600,184027.500,407863.100,194554.600,238252.900,211210.000,203936.100,219228.700,0.000
156503.600,183972.700,407884.800,194550.900,238422.300,210968.000,203997.400,219281.900,0.000
156393.900,183863.300,407793.200,194492.900,238544.500,210486.600,204068.800,219335.400,0.000
156379.800,183739.000,407628.000,194447.300,238407.300,210348.100,204030.300,219291.500,0.000
156561.400,183796.300,407750.900,194572.600,238099.100,210834.800,203957.300,219232.300,0.000
156586.000,184044.400,407871.300,194573.100,238277.100,211235.400,203953.500,219248.200,0.000
156511.400,183973.200,407887.400,194559.400,238428.900,210976.700,204006.300,219290.200,0.000
156372.300,183838.000,407769.000,194472.100,238521.600,210467.800,204049.600,219312.300,0.000
156359.500,183718.700,407602.100,194425.200,238387.500,210329.800,204013.000,219268.800,0.000
156552.200,183783.800,407728.300,194560.000,238080.300,210824.900,203952.900,219219.900,0.000
156589.900,184048.300,407865.600,194571.900,238274.900,211242.600,203964.900,219250.400,0.000
156497.400,183965.400,407861.700,194539.600,238415.400,210976.800,203999.000,219275.300,0.000
156378.400,183847.600,407761.400,194468.300,238525.000,210479.700,204056.800,219313.200,0.000
156379.700,183737.400,407608.600,194433.500,238400.900,210343.300,204032.000,219278.300,0.000
156547.000,183775.300,407710.800,194542.300,238070.000,210808.300,203941.900,219199.900,0.000
156601.700,184052.000,407857.800,194569.900,238270.300,211236.100,203963.000,219241.600,0.000
156522.700,183985.100,407871.500,194553.300,238428.700,210986.600,204009.200,219282.900,0.000
156381.400,183849.600,407754.800,194465.500,238523.900,210475.600,204050.300,219309.300,0.000
156370.200,183737.000,407592.600,194423.900,238404.700,210339.000,204024.700,219278.000,0.000
156551.500,183785.700,407704.600,194550.800,238082.300,210819.400,203954.000,219220.900,0.000
156602.100,184058.000,407854.400,194576.200,238275.400,211241.100,203970.900,219258.900,0.000
156526.100,183996.100,407870.100,194558.800,238439.800,210997.300,204017.300,219300.800,0.000
156390.600,183858.200,407755.900,194474.000,238542.200,210492.100,204063.200,219327.800,0.000
156359.800,183720.500,407572.600,194409.900,238405.500,210331.400,204018.100,219271.300,0.000
156543.600,183768.400,407681.500,194534.800,238079.700,210807.900,203949.300,219211.500,0.000
156604.500,184049.000,407839.800,194570.600,238284.900,211242.000,203972.900,219259.100,0.000
156508.200,183965.200,407832.100,194531.600,238427.200,210980.500,203998.700,219278.200,0.000
156360.300,183824.000,407709.800,194439.400,238519.300,210468.300,204031.700,219294.600,0.000
156350.600,183714.500,407551.700,194401.700,238412.100,210327.500,204011.500,219266.800,0.000
156537.900,183760.900,407669.500,194531.200,238086.000,210800.300,203942.300,219210.600,0.000
156586.400,184024.300,407815.200,194554.400,238262.500,211219.500,203954.200,219239.400,0.000
156513.500,183970.900,407832.000,194542.200,238428.500,210985.900,204002.000,219278.000,0.000
156370.200,183836.800,407711.400,194454.200,238523.600,210482.900,204038.900,219296.500,0.000
156352.200,183719.600,407547.300,194405.400,238412.800,210329.600,204009.700,219260.800,0.000
156544.800,183768.700,407666.200,194538.500,238092.000,210801.900,203946.200,219208.800,0.000
156603.600,184038.900,407818.700,194569.500,238268.800,211225.400,203963.800,219246.400,0.000
156528.000,183982.800,407832.000,194549.200,238433.800,210993.100,204012.700,219285.900,0.000
156391.800,183853.500,407719.800,194461.600,238536.000,210498.600,204056.600,219314.800,0.000
156370.400,183732.300,407548.900,194402.000,238418.300,210338.400,204023.700,219271.800,0.000
156546.500,183763.200,407650.300,194517.000,238079.100,210792.000,203943.500,219203.900,0.000
156609.400,184037.200,407812.200,194556.300,238266.700,211225.600,203972.300,219253.300,0.000
156520.500,183974.900,407812.300,194529.100,238422.900,210989.800,204008.600,219283.700,0.000
156382.600,183848.300,407700.200,194446.100,238526.500,210496.800,204048.800,219310.000,0.000
156369.400,183736.800,407543.800,194405.600,238434.000,210346.700,204027.800,219281.300,0.000
156539.000,183761.000,407643.000,194523.500,238087.500,210791.500,203945.500,219210.100,0.000
156589.400,184022.600,407794.000,194556.100,238262.100,211211.000,203963.700,219247.000,0.000
156524.600,183983.800,407816.800,194552.000,238440.400,211004.300,204024.000,219303.800,0.000
156384.300,183851.700,407699.000,194460.500,238540.400,210507.200,204058.400,219321.400,0.000
156368.200,183737.300,407536.600,194410.400,238445.200,210347.400,204030.800,219289.100,0.000
156538.300,183755.800,407631.700,194524.600,238099.400,210789.300,203947.700,219219.000,0.000
156580.300,184010.700,407770.800,194543.400,238254.100,211204.700,203948.900,219240.800,0.000
156515.700,183974.700,407795.600,194536.800,238432.600,210998.000,204007.200,219289.700,0.000
156379.000,183845.800,407682.500,194446.700,238533.000,210503.500,204048.200,219308.900,0.000
156344.200,183710.500,407498.300,194375.500,238422.700,210320.100,204003.800,219256.200,0.000
156513.800,183729.800,407587.900,194489.200,238074.300,210765.900,203922.000,219185.700,0.000
156572.600,184000.300,407742.700,194522.700,238239.700,211201.200,203940.900,219225.500,0.000
156500.000,183955.900,407759.600,194502.800,238407.000,210982.200,203984.500,219261.100,0.000
156374.400,183833.600,407658.700,194425.900,238511.300,210489.300,204032.400,219290.700,0.000
156367.300,183730.500,407506.600,194386.600,238425.600,210331.900,204019.200,219268.900,0.000
156540.500,183746.000,407601.400,194505.300,238077.900,210772.400,203934.500,219196.500,0.000
156588.500,184001.300,407746.800,194528.900,238235.300,211195.300,203939.700,219224.900,0.000
156512.600,183954.300,407758.100,194510.800,238401.300,210982.900,203986.400,219266.300,0.000
156397.200,183851.000,407670.000,194449.200,238522.900,210517.300,204050.500,219312.300,0.000
156361.900,183727.300,407497.400,194383.800,238431.600,210335.600,204016.100,219267.600,0.000
156525.300,183737.000,407580.300,194490.000,238074.400,210764.800,203927.400,219186.300,0.000
156584.800,184000.500,407735.000,194524.800,238230.300,211195.000,203944.600,219221.000,0.000
156496.100,183942.000,407734.000,194490.900,238384.800,210972.700,203974.100,219248.000,0.000
156364.000,183819.200,407626.200,194410.800,238495.300,210487.500,204018.400,219275.600,0.000
156362.300,183728.400,407479.800,194377.000,238429.600,210337.000,204016.400,219264.500,0.000
156530.700,183742.800,407570.700,194490.400,238080.300,210766.100,203931.300,219188.900,0.000
156574.600,183987.100,407712.400,194512.700,238218.900,211177.900,203932.500,219208.800,0.000
156509.700,183960.500,407735.300,194502.800,238401.900,210989.600,203989.500,219260.400,0.000
156374.100,183839.000,407625.500,194420.000,238509.500,210508.700,204032.600,219286.800,0.000
156354.800,183733.300,407463.900,194375.600,238434.500,210341.500,204018.600,219264.900,0.000
156530.700,183744.500,407565.600,194501.800,238089.200,210769.500,203943.400,219201.200,0.000
156577.300,183990.400,407710.200,194527.200,238224.100,211179.800,203949.900,219223.500,0.000
156505.000,183962.300,407725.300,194507.800,238401.600,210993.000,203998.500,219266.100,0.000
156382.400,183854.800,407626.200,194435.200,238521.700,210533.100,204051.000,219305.800,0.000
156354.800,183741.700,407461.100,194376.900,238446.200,210356.500,204028.700,219275.700,0.000
156525.200,183741.500,407553.500,194489.300,238089.300,210765.200,203940.400,219200.700,0.000
156584.100,183985.600,407705.100,194523.300,238217.600,211170.900,203944.500,219224.800,0.000
156517.700,183955.800,407714.900,194504.300,238389.200,210985.300,203985.700,219261.800,0.000
156390.900,183843.500,407606.200,194421.300,238502.400,210522.100,204028.800,219288.300,0.000
156362.800,183735.100,407440.800,194360.200,238433.200,210347.300,204010.000,219258.600,0.000
156536.400,183738.900,407542.900,194482.800,238081.500,210760.500,203933.800,219192.500,0.000
156587.700,183979.700,407692.900,194515.700,238207.800,211166.300,203939.600,219218.300,0.000
156504.000,183943.900,407692.200,194487.600,238376.500,210976.700,203973.400,219250.600,0.000
156373.800,183836.000,407583.900,194411.400,238493.400,210519.900,204021.500,219284.600,0.000
156352.700,183737.300,407423.700,194359.900,238437.500,210347.500,204011.000,219264.500,0.000
156525.500,183734.400,407520.300,194478.900,238080.600,210754.300,203928.900,219191.300,0.000
156581.800,183975.900,407671.200,194514.800,238202.900,211163.000,203933.100,219216.700,0.000
156503.600,183945.300,407674.600,194487.000,238375.800,210978.900,203970.800,219251.200,0.000
156383.600,183838.000,407574.900,194417.400,238497.500,210526.800,204026.100,219291.600,0.000
156342.200,183720.000,407398.200,194348.100,238425.900,210334.700,204000.100,219254.600,0.000
156516.400,183722.100,407494.800,194468.200,238075.700,210744.200,203920.700,219184.400,0.000
156584.500,183976.200,407660.800,194513.400,238210.600,211168.300,203934.100,219218.600,0.000
156508.400,183952.500,407668.000,194484.500,238382.800,210990.900,203974.500,219251.000,0.000
156385.300,183851.200,407569.300,194413.200,238503.900,210537.300,204029.700,219289.900,0.000
156351.800,183742.900,407402.100,194353.600,238440.200,210350.800,204011.700,219264.200,0.000
156505.700,183724.000,407479.300,194453.800,238070.900,210740.800,203912.500,219173.400,0.000
156568.400,183973.600,407638.000,194496.600,238199.500,211160.900,203921.700,219201.400,0.000
156495.800,183949.900,407649.500,194476.700,238376.800,210987.000,203963.700,219239.900,0.000
156363.100,183827.100,407538.600,194394.200,238480.800,210514.600,204003.800,219260.700,0.000
156337.300,183727.200,407378.100,194345.100,238429.700,210329.500,203997.500,219244.400,0.000
156525.000,183743.100,407490.700,194481.900,238092.900,210755.300,203934.600,219191.900,0.000
156589.500,183994.300,407651.200,194522.300,238218.600,211182.800,203944.000,219221.700,0.000
156503.900,183961.900,407648.400,194483.600,238389.700,211000.700,203974.100,219247.800,0.000
156348.400,183815.200,407519.300,194381.900,238476.100,210509.000,203999.500,219256.200,0.000
156313.500,183702.700,407351.300,194322.900,238417.700,210315.900,203988.900,219236.300,0.000
156498.400,183712.400,407454.500,194452.000,238077.500,210733.600,203921.100,219178.400,0.000
156559.000,183957.200,407610.400,194489.600,238195.200,211155.300,203926.000,219198.800,0.000
156481.800,183936.600,407617.300,194461.500,238371.800,210984.500,203963.700,219233.900,0.000
156354.800,183821.200,407511.800,194384.500,238479.500,210518.400,204010.800,219264.100,0.000
156320.900,183716.900,407344.900,194324.600,238425.700,210320.900,203996.800,219243.100,0.000
156509.700,183725.800,407450.400,194459.000,238084.800,210736.600,203933.000,219190.300,0.000
156570.800,183972.400,407604.000,194498.200,238200.500,211160.200,203933.200,219212.200,0.000
156494.200,183947.200,407610.700,194471.200,238375.800,210987.600,203968.700,219246.100,0.000
156370.500,183830.200,407513.900,194401.700,238485.000,210520.300,204020.400,219280.400,0.000
156329.400,183719.400,407340.400,194338.000,238427.300,210311.200,204002.000,219256.700,0.000
156505.200,183720.900,407432.900,194461.000,238077.800,210721.000,203923.500,219192.800,0.000
156560.800,183960.000,407585.600,194490.900,238189.200,211143.000,203920.400,219208.800,0.000
156500.600,183954.800,407613.000,194476.500,238386.500,210998.400,203978.000,219260.100,0.000
156375.800,183836.000,407515.000,194406.900,238496.100,210531.000,204030.200,219294.100,0.000
156336.300,183728.600,407344.400,194345.600,238448.300,210326.900,204021.500,219275.200,0.000
156495.200,183718.000,407419.400,194451.100,238084.500,210723.600,203930.900,219193.600,0.000
156562.000,183969.500,407583.000,194498.500,238206.000,211167.500,203941.200,219221.300,0.000
156489.600,183955.700,407596.300,194477.400,238392.600,211012.900,203985.600,219263.700,0.000
156348.000,183821.000,407481.500,194390.700,238481.700,210522.500,204021.000,219280.400,0.000
156305.400,183706.800,407309.500,194321.700,238430.800,210301.900,204003.000,219252.600,0.000
156484.800,183706.700,407398.800,194441.500,238075.400,210703.300,203921.300,219182.600,0.000
156561.900,183966.000,407567.200,194492.600,238196.700,211146.600,203932.900,219213.200,0.000
156488.900,183950.500,407574.600,194463.800,238378.300,210986.600,203967.400,219247.300,0.000
156360.700,183823.700,407468.000,194385.900,238472.200,210504.000,204005.100,219270.600,0.000
156318.800,183707.600,407291.100,194318.900,238419.700,210278.800,203986.400,219242.500,0.000
156504.200,183712.700,407387.000,194445.700,238078.500,210691.200,203918.000,219182.400,0.000
156578.300,183968.500,407556.000,194493.400,238193.900,211138.700,203929.400,219210.800,0.000
156499.300,183951.600,407563.000,194462.400,238377.100,210984.500,203968.000,219245.300,0.000
156370.400,183830.400,407459.600,194387.600,238480.300,210513.500,204015.000,219273.000,0.000
156315.200,183708.500,407274.000,194309.000,238423.200,210285.700,203991.000,219241.700,0.000
156487.200,183701.500,407357.800,194425.600,238067.600,210686.900,203909.500,219172.500,0.000
156559.700,183950.900,407525.300,194476.100,238175.500,211126.800,203914.100,219197.700,0.000
156484.800,183940.300,407537.300,194449.800,238364.200,210976.600,203953.700,219234.100,0.000
156364.900,183820.600,407442.600,194384.000,238470.000,210508.000,204006.300,219269.800,0.000
156323.800,183716.000,407272.900,194319.500,238430.900,210288.200,203997.000,219251.500,0.000
156471.500,183688.300,407338.000,194412.600,238061.700,210667.900,203896.500,219160.300,0.000
156549.500,183944.900,407508.700,194464.800,238175.100,211118.400,203907.100,219189.300,0.000
156476.900,183937.900,407520.000,194440.200,238363.800,210976.200,203948.100,219228.700,0.000
156331.300,183798.200,407405.400,194355.300,238449.700,210492.500,203981.000,219245.800,0.000
156289.900,183699.300,407239.700,194298.100,238415.400,210276.100,203978.700,219233.700,0.000
156445.500,183676.600,407308.500,194398.200,238049.900,210661.100,203889.000,219151.800,0.000
156529.200,183930.500,407484.200,194453.800,238160.100,211115.100,203901.800,219182.900,0.000
156467.200,183927.800,407501.800,194433.300,238352.800,210978.000,203947.900,219223.900,0.000
156348.800,183807.800,407407.300,194365.300,238460.100,210508.600,203998.400,219256.100,0.000
156311.200,183700.700,407235.500,194301.400,238423.200,210282.800,203990.000,219238.900,0.000
156479.000,183683.800,407310.000,194411.400,238064.800,210668.000,203905.000,219163.300,0.000
156547.100,183924.700,407470.100,194453.300,238158.900,211107.400,203901.600,219177.900,0.000
156476.100,183923.200,407487.000,194426.900,238350.900,210973.300,203942.300,219218.300,0.000
156346.500,183799.700,407391.200,194353.000,238451.600,210502.100,203989.300,219250.900,0.000
156296.000,183690.800,407219.900,194282.400,238419.800,210273.700,203982.300,219236.500,0.000
156465.000,183679.400,407299.200,194393.900,238064.600,210663.800,203902.100,219165.500,0.000
156536.500,183924.700,407464.400,194441.200,238157.800,211109.600,203901.500,219184.300,0.000
156459.800,183926.200,407476.000,194410.100,238350.900,210979.500,203938.900,219219.800,0.000
156334.300,183810.600,407386.300,194343.400,238459.700,210519.400,203996.200,219257.600,0.000
156273.500,183694.000,407201.000,194261.600,238413.200,210277.700,203980.100,219230.000,0.000
156451.600,183685.700,407281.300,194379.100,238061.800,210669.600,203904.000,219162.200,0.000
156538.100,183938.400,407458.700,194439.400,238163.800,211122.000,203913.100,219191.200,0.000
156462.300,183930.100,407465.100,194409.800,238349.900,210983.300,203946.600,219221.300,0.000
156333.700,183796.700,407364.700,194338.900,238448.300,210505.800,203991.500,219247.500,0.000
156288.000,183685.000,407186.700,194268.600,238411.900,210261.600,203981.700,219227.700,0.000
156454.900,183665.100,407259.100,194378.000,238050.800,210640.500,203898.200,219154.200,0.000
156515.500,183895.200,407412.700,194414.500,238128.200,211080.000,203887.000,219161.200,0.000
156452.500,183907.400,407437.900,194395.400,238329.800,210964.800,203933.100,219204.800,0.000
156336.900,183793.600,407357.300,194338.100,238444.300,210506.100,203989.300,219246.000,0.000
156289.900,183693.800,407191.400,194274.900,238426.400,210273.700,203989.600,219236.200,0.000
156440.100,183663.800,407244.900,194370.900,238053.200,210642.900,203891.100,219146.300,0.000
156519.600,183913.600,407415.500,194425.500,238145.200,211100.000,203892.700,219168.300,0.000
156479.300,183950.300,407462.100,194428.000,238375.000,211010.200,203960.400,219233.800,0.000
156352.500,183821.500,407364.500,194355.500,238472.200,210537.000,204004.600,219261.700,0.000
156289.000,183699.400,407172.500,194265.100,238428.200,210277.200,203980.800,219228.500,0.000
156464.100,183683.100,407245.700,194376.200,238074.200,210658.800,203898.600,219155.800,0.000
156554.600,183934.100,407424.000,194438.500,238164.400,211117.300,203905.600,219185.400,0.000
156479.300,183935.600,407438.000,194407.700,238355.400,210990.500,203938.600,219219.900,0.000
156344.100,183793.300,407337.700,194330.500,238440.600,210506.800,203976.700,219242.900,0.000
156283.000,183672.400,407153.900,194253.000,238406.500,210247.000,203967.100,219225.500,0.000
156457.500,183661.300,407225.500,194366.800,238052.300,210632.200,203889.100,219157.800,0.000
156534.500,183915.300,407391.800,194414.600,238140.800,211098.900,203885.300,219173.500,0.000
156466.300,183926.600,407414.400,194390.700,238351.700,210987.000,203929.400,219214.000,0.000
156338.500,183792.500,407325.100,194328.000,238445.800,210503.900,203982.600,219248.700,0.000
156275.700,183676.400,407145.400,194251.700,238411.700,210245.300,203977.000,219228.600,0.000
156446.000,183667.700,407214.700,194368.600,238064.700,210643.200,203902.400,219161.200,0.000
156514.000,183908.300,407373.000,194411.000,238143.500,211107.900,203888.900,219169.500,0.000
156466.800,183933.700,407417.400,194409.300,238365.400,211003.300,203948.900,219230.500,0.000
156340.700,183794.900,407326.400,194345.000,238453.000,210513.200,203995.400,219257.000,0.000
156279.000,183679.000,407144.300,194266.200,238417.300,210245.500,203983.200,219234.300,0.000
156452.600,183668.900,407205.700,194375.700,238061.000,210632.400,203898.100,219159.900,0.000
156538.000,183916.800,407374.000,194426.800,238143.200,211102.000,203892.400,219171.200,0.000
156474.600,183932.600,407400.700,194400.400,238354.000,210994.500,203932.200,219212.000,0.000
156339.800,183785.800,407304.000,194324.200,238434.200,210498.300,203969.100,219233.200,0.000
156284.300,183670.500,407125.100,194250.300,238408.500,210235.200,203967.000,219218.200,0.000
156459.100,183658.400,407191.800,194363.200,238056.700,210626.900,203893.300,219150.300,0.000
156521.000,183891.800,407341.000,194395.900,238120.600,211083.700,203873.200,219148.900,0.000
156456.900,183918.000,407372.900,194380.300,238339.300,210990.200,203926.200,219198.800,0.000
156347.700,183801.600,407305.100,194339.600,238452.800,210527.200,203996.900,219253.500,0.000
156278.700,183681.100,407116.500,194257.500,238421.200,210250.600,203983.400,219234.100,0.000
156440.800,183664.600,407177.500,194363.000,238068.400,210629.100,203899.800,219159.700,0.000
156528.200,183914.900,407353.500,194425.700,238145.900,211103.100,203903.300,219185.100,0.000
156450.100,183921.600,407368.500,194390.800,238343.600,210990.100,203935.800,219219.500,0.000
156312.500,183777.300,407270.000,194313.800,238427.500,210501.500,203970.900,219238.100,0.000
156247.500,183664.300,407083.400,194226.800,238405.400,210235.100,203960.000,219217.200,0.000
156441.800,183677.100,407171.800,194358.500,238075.400,210637.900,203907.600,219171.100,0.000
156517.500,183910.900,407335.200,194405.900,238139.400,211092.000,203895.000,219174.800,0.000
156450.100,183919.900,407349.300,194375.200,238342.800,210985.800,203926.800,219206.300,0.000
156333.000,183786.200,407258.300,194310.300,238431.300,210516.000,203972.400,219235.600,0.000
156277.500,183681.500,407081.700,194237.200,238418.100,210250.600,203968.600,219221.500,0.000
156446.200,183661.800,407147.300,194344.500,238063.300,210616.900,203887.100,219145.400,0.000
156540.400,183906.200,407327.100,194407.500,238130.000,211084.000,203890.900,219162.800,0.000
156478.200,183933.900,407351.100,194382.800,238337.600,210992.800,203928.800,219202.000,0.000
156345.100,183798.900,407251.800,194310.300,238425.700,210519.400,203965.900,219225.200,0.000
156275.700,183692.000,407072.300,194230.000,238419.600,210256.700,203967.800,219214.100,0.000
156427.900,183656.300,407125.200,194329.700,238055.800,210606.100,203883.800,219138.800,0.000
156511.600,183890.000,407300.600,194391.600,238113.000,211060.000,203882.000,219156.700,0.000
156461.100,183928.600,407337.500,194381.000,238333.400,210986.100,203934.400,219210.500,0.000
156333.400,183793.300,407242.100,194311.700,238422.400,210519.600,203971.800,219233.300,0.000
156273.700,183689.600,407066.200,194235.000,238422.000,210258.300,203973.200,219222.600,0.000
156432.400,183649.900,407120.000,194340.700,238061.000,210607.400,203888.200,219145.100,0.000
156526.300,183888.800,407299.000,194407.300,238120.600,211070.100,203890.800,219163.400,0.000
156453.900,183911.300,407310.200,194371.100,238316.800,210978.200,203920.400,219192.300,0.000
156332.000,183792.300,407228.200,194306.800,238419.600,210521.500,203969.900,219227.000,0.000
156264.500,183687.600,407050.100,194224.000,238422.100,210254.100,203968.900,219218.100,0.000
156443.400,183669.500,407121.200,194340.900,238075.000,210617.300,203899.900,219156.700,0.000
156529.500,183897.100,407292.700,194400.500,238121.200,211066.800,203890.700,219167.300,0.000
156457.300,183916.200,407304.500,194364.800,238323.300,210977.000,203920.900,219198.000,0.000
156333.100,183789.100,407213.800,194300.200,238421.200,210520.000,203967.100,219232.000,0.000
156272.900,183687.500,407037.700,194225.400,238424.700,210255.200,203971.000,219227.300,0.000
156437.200,183660.900,407096.800,194331.700,238068.600,210607.500,203891.900,219154.000,0.000
156524.500,183888.600,407273.800,194393.800,238112.500,211064.100,203885.800,219165.500,0.000
156463.700,183921.200,407296.200,194367.100,238317.800,210990.000,203924.500,219204.800,0.000
156348.000,183799.200,407215.800,194304.700,238419.900,210537.000,203971.200,219237.400,0.000
156293.800,183704.200,407049.200,194232.000,238437.600,210272.400,203981.400,219234.700,0.000
156447.800,183662.800,407098.700,194330.500,238077.200,210612.700,203897.200,219154.900,0.000
156527.500,183883.700,407267.500,194387.000,238112.300,211062.500,203884.000,219160.100,0.000
156472.300,183924.600,407296.500,194371.600,238331.500,210994.500,203929.700,219208.400,0.000
156335.500,183781.500,407195.500,194295.000,238412.000,210522.400,203962.600,219224.200,0.000
156270.400,183675.100,407020.600,194214.100,238422.800,210245.600,203964.500,219219.200,0.000
156433.400,183639.700,407075.200,194320.300,238067.600,210588.600,203885.500,219149.900,0.000
156519.700,183864.200,407246.800,194384.700,238101.300,211040.800,203875.500,219162.100,0.000
156458.000,183900.800,407272.600,194361.800,238315.900,210973.000,203916.000,219206.500,0.000
156342.100,183782.100,407192.100,194304.600,238418.700,210525.800,203967.100,219241.700,0.000
156267.500,183679.000,407007.900,194212.500,238424.500,210246.200,203962.700,219224.900,0.000
156422.800,183633.400,407048.600,194305.300,238055.600,210577.800,203873.300,219138.500,0.000
156517.500,183863.900,407224.300,194368.800,238084.700,211035.400,203862.700,219144.300,0.000
156455.200,183910.400,407249.500,194340.200,238300.100,210973.700,203900.100,219180.700,0.000
156341.600,183792.900,407175.900,194285.300,238406.100,210527.300,203952.800,219216.200,0.000
156278.600,183690.700,407002.400,194206.500,238417.800,210246.800,203956.000,219210.300,0.000
156441.000,183649.600,407054.400,194311.300,238063.100,210581.300,203874.600,219137.900,0.000
156539.200,183875.800,407235.300,194383.100,238094.900,211044.200,203870.700,219154.800,0.000
156453.800,183893.300,407241.100,194336.600,238288.400,210961.500,203890.200,219173.300,0.000
156331.100,183772.600,407161.800,194277.100,238392.300,210515.300,203943.000,219209.000,0.000
156267.600,183683.900,406993.000,194207.300,238421.700,210248.800,203960.000,219214.200,0.000
156421.500,183643.500,407036.300,194306.900,238061.700,210585.200,203879.800,219138.000,0.000
156521.200,183876.900,407221.800,194379.100,238098.700,211054.200,203883.100,219153.800,0.000
156461.600,183922.300,407251.100,194351.600,238315.900,210998.300,203922.800,219195.100,0.000
156345.400,183799.200,407175.000,194292.500,238418.300,210549.200,203971.300,219229.000,0.000
156281.900,183702.600,407003.000,194211.700,238438.700,210269.400,203976.800,219224.200,0.000
156432.500,183649.900,407036.900,194301.100,238070.100,210590.000,203883.500,219135.300,0.000
156517.700,183858.600,407200.700,194356.800,238080.300,211035.700,203861.700,219132.100,0.000
156463.200,183906.100,407232.500,194335.700,238303.700,210981.600,203904.500,219177.500,0.000
156347.300,183783.800,407155.600,194282.100,238404.300,210529.700,203954.800,219214.100,0.000
156285.500,183695.400,406988.700,194212.100,238436.300,210255.500,203971.500,219221.700,0.000
156441.400,183655.400,407030.700,194315.600,238082.300,210589.000,203895.800,219151.500,0.000
156513.500,183857.400,407184.100,194369.800,238088.800,211030.900,203868.600,219144.800,0.000
156445.000,183894.900,407201.300,194339.100,238300.400,210969.900,203900.400,219178.900,0.000
156323.500,183763.400,407119.200,194275.100,238396.800,210514.800,203943.700,219206.100,0.000
156250.000,183662.400,406942.900,194186.100,238416.600,210225.900,203945.800,219197.800,0.000
156415.500,183624.400,406994.200,194292.200,238066.200,210559.200,203867.900,219128.800,0.000
156524.300,183860.100,407186.000,194371.800,238095.600,211036.400,203867.300,219150.100,0.000
156478.700,183919.500,407228.500,194356.300,238322.000,210998.500,203918.000,219202.100,0.000
156361.600,183794.400,407152.000,194296.100,238420.200,210545.000,203965.000,219229.000,0.000
156268.000,183678.700,406953.200,194189.500,238423.000,210238.800,203953.100,219200.400,0.000
156425.600,183638.300,406990.500,194289.300,238063.800,210568.500,203872.000,219124.500,0.000
156526.400,183867.500,407171.700,194364.400,238087.800,211040.500,203863.900,219137.500,0.000
156456.200,183910.500,407192.900,194331.700,238303.000,210988.800,203894.700,219170.400,0.000
156337.900,183778.800,407116.800,194277.600,238401.000,210534.000,203945.000,219204.300,0.000
156267.600,183671.500,406937.800,194195.800,238420.500,210237.000,203949.900,219198.900,0.000
156436.500,183632.100,406984.600,194306.500,238072.300,210573.400,203879.800,219136.200,0.000
156529.100,183850.800,407162.200,194373.100,238087.800,211039.300,203866.800,219141.900,0.000
156460.300,183898.800,407186.000,194340.900,238302.200,210987.400,203897.200,219177.000,0.000
156347.300,183782.800,407121.300,194288.800,238409.700,210540.800,203953.200,219218.100,0.000
156257.200,183670.200,406931.700,194183.700,238423.200,210233.700,203950.100,219201.400,0.000
156396.900,183614.600,406951.400,194261.700,238050.700,210541.700,203853.000,219111.600,0.000
156517.300,183859.500,407149.500,194349.300,238084.200,211032.700,203861.000,219137.000,0.000
156462.500,183915.500,407178.200,194324.600,238307.900,210994.500,203902.100,219179.500,0.000
156339.300,183783.100,407096.600,194264.500,238398.500,210536.100,203948.800,219211.100,0.000
156257.200,183676.900,406917.000,194174.500,238424.000,210233.500,203955.300,219202.500,0.000
156404.500,183620.500,406941.300,194268.600,238060.900,210548.700,203867.900,219121.700,0.000
156501.100,183836.000,407112.300,194341.500,238068.000,211021.600,203854.500,219128.900,0.000
156446.700,183889.000,407141.000,194319.100,238288.500,210983.800,203893.400,219171.700,0.000
156330.300,183757.500,407067.700,194265.500,238384.800,210528.900,203942.600,219205.300,0.000
156253.500,183655.600,406892.300,194182.000,238412.800,210227.600,203952.200,219204.500,0.000
156408.500,183609.800,406926.600,194279.400,238055.400,210547.500,203870.200,219129.600,0.000
156513.600,183835.400,407111.700,194354.200,238067.400,211024.700,203858.900,219136.400,0.000
156462.100,183896.600,407152.200,194335.100,238295.400,210992.300,203900.900,219182.600,0.000
156335.600,183759.400,407072.300,194271.900,238381.900,210529.300,203941.800,219207.400,0.000
156248.400,183660.400,406887.500,194173.500,238409.700,210226.300,203946.600,219196.100,0.000
156419.100,183641.000,406934.800,194284.600,238076.000,210564.400,203878.700,219133.900,0.000
156525.300,183876.100,407122.400,194360.000,238096.300,211052.900,203866.800,219139.500,0.000
156462.900,183921.200,407157.900,194335.100,238315.700,211001.300,203906.800,219181.100,0.000
156342.800,183783.100,407081.500,194279.900,238401.800,210544.400,203956.000,219213.200,0.000
156260.600,183677.400,406899.600,194188.800,238433.800,210241.200,203967.200,219209.500,0.000
156422.500,183634.700,406932.500,194286.400,238085.600,210564.700,203892.100,219137.200,0.000
156531.900,183863.400,407115.300,194359.100,238099.300,211059.800,203878.400,219149.500,0.000
156464.600,183898.300,407140.300,194324.400,238307.400,210998.500,203903.700,219180.100,0.000
156362.000,183772.400,407081.900,194286.200,238405.300,210541.300,203960.200,219222.200,0.000
156287.300,183677.100,406911.400,194207.100,238438.200,210236.300,203975.100,219228.500,0.000
156446.700,183644.100,406942.700,194304.700,238088.000,210567.500,203897.600,219158.600,0.000
156539.100,183868.300,407114.200,194364.300,238094.300,211058.200,203870.800,219153.800,0.000
156474.200,183914.500,407145.800,194335.400,238312.900,211007.800,203903.200,219188.100,0.000
156355.300,183777.000,407072.800,194276.900,238396.500,210538.100,203947.300,219216.400,0.000
156270.100,183672.100,406886.100,194180.900,238418.700,210215.100,203948.300,219206.300,0.000
156430.600,183637.700,406916.000,194282.200,238075.100,210546.900,203876.100,219140.000,0.000
156528.200,183859.900,407088.700,194346.900,238082.800,211043.200,203856.800,219140.600,0.000
156473.900,183915.000,407129.400,194326.000,238314.300,211011.800,203901.000,219185.300,0.000
156349.300,183764.300,407053.600,194268.200,238391.700,210536.800,203945.900,219209.600,0.000
156283.200,183674.700,406889.500,194198.700,238435.400,210234.300,203973.300,219226.000,0.000
156433.800,183629.400,406910.500,194288.400,238085.600,210554.400,203892.800,219151.100,0.000
156525.900,183851.900,407082.200,194351.400,238084.600,211049.500,203866.900,219146.700,0.000
156454.600,183900.600,407110.800,194318.100,238306.200,211007.500,203896.900,219177.300,0.000
156338.700,183769.000,407045.200,194270.700,238395.800,210548.000,203952.200,219214.400,0.000
156252.900,183666.900,406865.300,194182.400,238426.300,210227.200,203963.100,219212.800,0.000
156394.200,183613.200,406876.300,194263.100,238071.700,210534.100,203870.600,219130.600,0.000
156517.200,183855.000,407069.800,194349.100,238091.100,211050.600,203866.300,219147.800,0.000
156467.800,183919.700,407117.100,194331.300,238325.800,211031.200,203909.200,219193.800,0.000
156341.300,183764.000,407035.200,194268.700,238392.500,210551.800,203943.700,219211.400,0.000
156256.400,183654.100,406849.900,194173.200,238419.300,210222.500,203951.200,219207.900,0.000
156414.600,183611.500,406872.300,194264.900,238076.800,210541.300,203873.000,219136.600,0.000
156530.700,183842.400,407058.300,194346.500,238079.000,211042.500,203860.700,219143.800,0.000
156477.000,183909.600,407099.400,194323.800,238308.000,211019.000,203900.300,219188.200,0.000
156356.800,183773.500,407026.700,194268.000,238390.400,210559.300,203945.600,219216.400,0.000
156255.000,183658.800,406829.500,194160.300,238413.500,210225.400,203940.700,219199.000,0.000
156406.300,183607.200,406849.600,194252.400,238064.300,210531.500,203862.100,219126.500,0.000
156520.700,183835.600,407042.500,194335.800,238063.500,211023.100,203850.900,219134.200,0.000
156455.000,183888.100,407070.700,194300.000,238274.400,210984.400,203879.400,219166.200,0.000
156343.500,183766.000,407006.300,194247.300,238371.000,210544.100,203932.300,219199.300,0.000
156247.700,183663.600,406819.000,194144.200,238411.700,210222.000,203935.600,219191.000,0.000
156395.300,183609.400,406834.200,194231.700,238063.000,210518.000,203856.300,219115.000,0.000
156523.000,183837.400,407032.200,194330.700,238061.100,211022.500,203858.200,219134.800,0.000
156471.900,183903.900,407075.900,194317.400,238294.500,211008.900,203904.100,219184.400,0.000
156361.700,183778.400,407013.800,194277.600,238393.400,210573.200,203960.000,219224.800,0.000
156252.000,183665.300,406817.700,194165.900,238430.300,210241.500,203955.800,219206.500,0.000
156400.400,183616.300,406839.100,194259.100,238092.000,210540.300,203882.900,219137.500,0.000
156516.100,183837.300,407028.600,194344.900,238077.600,211027.700,203866.500,219143.300,0.000
156465.900,183907.100,407072.700,194324.800,238306.900,211011.200,203903.700,219189.300,0.000
156342.500,183766.000,406991.700,194262.100,238381.200,210555.600,203939.700,219210.000,0.000
156253.900,183676.900,406816.900,194167.600,238440.000,210239.500,203956.400,219212.600,0.000
156401.800,183618.200,406833.100,194256.300,238094.500,210529.800,203879.500,219138.900,0.000
156515.600,183828.700,407013.800,194336.500,238065.000,211016.600,203859.600,219137.800,0.000
156469.700,183908.900,407056.600,194317.300,238297.600,211012.500,203901.300,219185.400,0.000
156364.200,183791.200,406995.700,194274.600,238396.800,210578.600,203957.800,219224.200,0.000
156243.800,183667.300,406786.200,194149.900,238424.100,210227.000,203943.900,219197.600,0.000
156382.000,183598.600,406790.400,194231.000,238070.400,210503.300,203856.800,219116.200,0.000
156497.300,183809.500,406977.000,194318.100,238041.400,210990.700,203836.800,219116.700,0.000
156457.800,183898.300,407030.000,194307.600,238287.200,211001.500,203887.000,219172.200,0.000
156347.900,183768.100,406961.300,194257.700,238376.700,210556.200,203935.600,219206.700,0.000
156253.100,183663.500,406771.700,194155.700,238420.600,210217.500,203940.500,219202.000,0.000
156399.600,183603.000,406780.500,194238.700,238073.000,210496.900,203861.000,219127.400,0.000
156527.000,183820.800,406974.900,194327.100,238050.600,210994.000,203852.700,219135.700,0.000
156483.100,183909.600,407020.200,194305.900,238289.700,211002.600,203894.500,219179.600,0.000
156362.200,183772.800,406945.200,194248.600,238368.300,210552.100,203932.700,219200.600,0.000
156262.600,183671.400,406762.300,194150.800,238417.000,210219.100,203942.500,219195.500,0.000
156388.700,183602.000,406760.100,194224.000,238068.800,210490.700,203854.900,219109.000,0.000
156506.800,183820.300,406950.600,194315.100,238047.400,210994.000,203846.400,219117.600,0.000
156459.800,183909.100,407001.400,194300.200,238287.100,211008.600,203890.300,219167.100,0.000
156328.000,183757.500,406919.300,194236.800,238356.900,210546.600,203920.000,219182.500,0.000
156237.500,183663.000,406741.300,194142.600,238414.800,210212.400,203932.100,219182.800,0.000
156381.700,183609.000,406748.800,194227.800,238077.000,210496.800,203857.200,219111.800,0.000
156500.900,183820.200,406936.000,194313.600,238043.800,210995.400,203840.000,219110.500,0.000
156460.500,183914.000,406989.600,194297.900,238286.700,211016.900,203888.100,219160.100,0.000
156339.400,183765.100,406914.100,194239.900,238362.900,210561.000,203928.300,219182.000,0.000
156245.200,183662.500,406734.600,194142.600,238418.800,210218.100,203943.400,219184.900,0.000
156384.900,183598.500,406736.200,194222.600,238079.300,210490.700,203864.100,219108.400,0.000
156506.600,183809.000,406922.400,194310.800,238041.800,210988.300,203844.000,219110.700,0.000
156463.200,183899.700,406970.300,194291.600,238281.400,211010.800,203885.100,219160.500,0.000
156342.000,183757.400,406897.300,194238.300,238360.300,210552.400,203925.800,219184.300,0.000
156242.500,183653.200,406713.100,194139.800,238406.200,210199.700,203936.300,219182.200,0.000
156371.100,183582.800,406700.900,194208.400,238053.300,210468.400,203846.700,219098.200,0.000
156492.800,183795.600,406886.500,194293.500,238016.700,210974.500,203824.100,219096.300,0.000
156448.500,183891.000,406944.500,194277.900,238265.000,211003.300,203866.800,219144.800,0.000
156337.000,183757.200,406891.300,194237.000,238354.300,210550.000,203921.500,219182.500,0.000
156244.300,183661.700,406715.400,194144.800,238414.800,210202.000,203943.700,219192.900,0.000
156374.500,183599.800,406698.400,194211.500,238069.400,210477.500,203857.600,219110.400,0.000
156502.600,183827.700,406887.900,194301.000,238044.000,211007.500,203841.400,219116.700,0.000
156456.200,183914.000,406941.400,194285.300,238285.300,211027.800,203883.300,219166.100,0.000
156342.000,183765.700,406884.200,194241.900,238365.000,210563.300,203930.700,219197.400,0.000
156250.200,183669.300,406712.000,194154.000,238425.000,210214.500,203957.100,219211.000,0.000
156361.500,183587.000,406680.400,194205.200,238061.800,210469.600,203853.900,219112.300,0.000
156488.200,183808.700,406870.300,194296.900,238031.000,210994.300,203836.400,219113.400,0.000
156455.800,183914.200,406936.300,194289.500,238291.800,211033.900,203887.300,219169.700,0.000
156337.800,183755.100,406870.300,194235.200,238358.100,210561.300,203923.600,219184.000,0.000
156243.300,183648.900,406689.500,194136.400,238407.800,210198.400,203937.900,219181.000,0.000
156386.600,183598.000,406682.900,194215.600,238075.500,210473.500,203860.800,219108.700,0.000
156512.700,183817.900,406871.900,194306.600,238034.400,210992.300,203837.900,219106.000,0.000
156459.600,183908.500,406921.800,194281.200,238270.700,211017.800,203869.100,219145.800,0.000
156337.800,183756.500,406859.400,194229.800,238343.100,210553.300,203913.900,219173.400,0.000
156239.800,183653.800,406685.000,194135.200,238398.400,210198.100,203936.900,219182.800,0.000
156369.800,183589.700,406671.000,194205.900,238060.100,210462.500,203857.800,219109.200,0.000
156501.300,183804.000,406860.800,194298.400,238023.200,210981.700,203841.000,219115.000,0.000
156452.700,183896.200,406905.600,194271.000,238262.200,211013.600,203871.700,219155.600,0.000
156323.100,183736.700,406831.000,194209.600,238326.600,210541.300,203902.700,219170.500,0.000
156226.900,183645.200,406656.300,194114.000,238396.900,210192.800,203928.800,219181.800,0.000
156360.200,183585.900,406643.400,194188.300,238064.100,210461.400,203855.800,219110.000,0.000
156485.700,183794.600,406834.800,194283.100,238013.800,210975.700,203837.300,219110.000,0.000
156438.100,183892.800,406888.400,194260.900,238257.500,211012.300,203873.500,219152.900,0.000
156320.200,183749.200,406828.200,194209.800,238338.100,210562.100,203915.000,219177.300,0.000
156233.600,183672.700,406669.800,194125.600,238428.700,210230.400,203952.300,219200.100,0.000
156358.800,183602.300,406653.200,194195.900,238091.900,210480.200,203871.900,219124.800,0.000
156481.900,183793.500,406834.700,194286.600,238026.600,210978.000,203846.400,219118.800,0.000
156439.200,183896.000,406885.000,194262.900,238269.700,211024.000,203884.000,219163.900,0.000
156310.500,183737.000,406807.300,194198.100,238334.700,210562.500,203908.100,219173.900,0.000
156218.200,183649.500,406639.100,194106.500,238415.200,210216.200,203933.300,219185.100,0.000
156361.300,183589.800,406634.700,194191.200,238092.800,210474.000,203868.500,219120.900,0.000
156480.200,183779.500,406812.800,194276.100,238014.800,210961.900,203833.400,219102.300,0.000
156441.300,183889.700,406872.100,194257.700,238258.300,211013.500,203870.500,219146.300,0.000
156332.200,183757.500,406819.400,194211.500,238343.900,210575.600,203916.200,219178.100,0.000
156233.000,183668.100,406646.800,194112.900,238425.300,210221.700,203939.000,219189.200,0.000
156359.700,183593.800,406624.400,194182.000,238089.500,210460.100,203858.700,219112.700,0.000
156489.300,183791.200,406810.600,194280.800,238020.200,210963.300,203839.700,219112.900,0.000
156464.700,183918.300,406883.800,194277.700,238282.000,211035.300,203894.200,219177.000,0.000
156338.500,183761.400,406810.300,194216.700,238350.300,210578.400,203922.800,219190.600,0.000
156246.800,183672.000,406642.100,194124.500,238431.500,210226.500,203950.000,219206.800,0.000
156372.900,183592.100,406618.600,194188.500,238092.800,210459.400,203866.300,219127.000,0.000
156488.900,183771.000,406789.100,194267.400,238002.500,210945.800,203825.100,219107.100,0.000
156464.100,183904.200,406860.800,194260.000,238267.200,211028.200,203880.800,219165.600,0.000
156351.200,183767.300,406807.100,194214.700,238354.600,210588.100,203929.500,219193.600,0.000
